Start time = 18:20:29.367594
End time = 18:20:39.304940
laser_energy = 6.550
channel_1_dial = 850
channel_2_dial = 850
channel_3_dial = 850
channel_4_dial = 850
NG-1-LII = 0
NG-3-15399 = 0
NG-4-LII = 0
NG-4-15399 = 0
NG-5-LII = 0
NG-5-15399 = 0
NG-9-LII = 0
NG-9-15399 = 0
NG-10-01 = 0
NG-11-15399 = 0
NG-12-15399 = 0
NG-4A-2001 = 0
NG-4B-2001 = 0
NG-5A-2001 = 0
NG-3-2001 = 0
NG-5B-2001 = 0
NG-1-2001 = 0
NG-9-2001 = 0
NG-10-2001 = 0
NG-11-2001 = 0
NG-12-2001 = 0
AND-200SN09 = 0
AND-100SN09 = 0
AND-050SN09 = 0
AND-030SN09 = 0
AND-015SN05 = 0
PMT#1Voltage = 0
PMT#2Voltage = 0
t0(sec) = 0.000000E+0
dt(sec) = 4.000000E-10
F1:INSP "
DESCRIPTOR_NAME    : WAVEDESC           
TEMPLATE_NAME      : LECROY_2_3         
COMM_TYPE          : word               
COMM_ORDER         : HIFIRST            
WAVE_DESCRIPTOR    : 346                
USER_TEXT          : 0                  
RES_DESC1          : 0                  
TRIGTIME_ARRAY     : 0                  
RIS_TIME_ARRAY     : 0                  
RES_ARRAY1         : 0                  
WAVE_ARRAY_1       : 10002              
WAVE_ARRAY_2       : 0                  
RES_ARRAY2         : 0                  
RES_ARRAY3         : 0                  
INSTRUMENT_NAME    : LECROYHDO6104      
INSTRUMENT_NUMBER  : 6308               
TRACE_LABEL        :                    
RESERVED1          : 5001               
RESERVED2          : 0                  
WAVE_ARRAY_COUNT   : 5001               
PNTS_PER_SCREEN    : 5000               
FIRST_VALID_PNT    : 0                  
LAST_VALID_PNT     : 5000               
FIRST_POINT        : 0                  
SPARSING_FACTOR    : 1                  
SEGMENT_INDEX      : 0                  
SUBARRAY_COUNT     : 1                  
SWEEPS_PER_ACQ     : 200                
POINTS_PER_PAIR    : 0                  
PAIR_OFFSET        : 0                  
VERTICAL_GAIN      : 2.6238e-006        
VERTICAL_OFFSET    : 6.5501e-002        
MAX_VALUE          : 3.0816e+004        
MIN_VALUE          : 1.3388e+004        
NOMINAL_BITS       : 16                 
NOM_SUBARRAY_COUNT : 1                  
HORIZ_INTERVAL     : 4.0000e-010        
HORIZ_OFFSET       : -2.00000000e-007   
PIXEL_OFFSET       : -2.00000000e-007   
VERTUNIT           : Unit Name = V
HORUNIT            : Unit Name = S
HORIZ_UNCERTAINTY  : 1.0000e-012        
TRIGGER_TIME       : Date = APR 17, 2024, Time = 19:20:25.261639918
ACQ_DURATION       : 9.9991e+000        
RECORD_TYPE        : single_sweep       
PROCESSING_DONE    : no_processing      
RESERVED5          : 0                  
RIS_SWEEPS         : 1                  
TIMEBASE           : 200_ns/div         
VERT_COUPLING      : DC_50_Ohms         
PROBE_ATT          : 1.0000e+000        
FIXED_VERT_GAIN    : 5_mV/div           
BANDWIDTH_LIMIT    : off                
VERTICAL_VERNIER   : 1.1600e+000        
ACQ_VERT_OFFSET    : 0.0000e+000        
WAVE_SOURCE        : UNKNOWN            
"
0.000194
0.000202
0.000220
0.000228
0.000231
0.000241
0.000244
0.000241
0.000252
0.000220
0.000247
0.000212
0.000270
0.000236
0.000252
0.000249
0.000228
0.000231
0.000257
0.000228
0.000241
0.000239
0.000244
0.000233
0.000239
0.000218
0.000223
0.000228
0.000239
0.000223
0.000257
0.000252
0.000254
0.000268
0.000244
0.000239
0.000252
0.000241
0.000244
0.000241
0.000236
0.000226
0.000254
0.000233
0.000231
0.000239
0.000241
0.000218
0.000218
0.000223
0.000202
0.000189
0.000212
0.000186
0.000197
0.000197
0.000199
0.000220
0.000207
0.000244
0.000252
0.000252
0.000252
0.000231
0.000202
0.000223
0.000220
0.000197
0.000247
0.000236
0.000247
0.000239
0.000249
0.000220
0.000241
0.000228
0.000252
0.000228
0.000210
0.000215
0.000236
0.000197
0.000231
0.000215
0.000207
0.000210
0.000210
0.000170
0.000207
0.000194
0.000218
0.000199
0.000223
0.000210
0.000226
0.000236
0.000252
0.000244
0.000236
0.000260
0.000252
0.000241
0.000226
0.000231
0.000241
0.000252
0.000236
0.000233
0.000233
0.000210
0.000231
0.000239
0.000226
0.000241
0.000226
0.000231
0.000226
0.000231
0.000218
0.000212
0.000202
0.000210
0.000231
0.000231
0.000231
0.000210
0.000239
0.000236
0.000236
0.000218
0.000215
0.000212
0.000223
0.000189
0.000218
0.000212
0.000223
0.000226
0.000239
0.000228
0.000247
0.000218
0.000247
0.000212
0.000231
0.000228
0.000254
0.000231
0.000226
0.000236
0.000223
0.000231
0.000262
0.000241
0.000220
0.000247
0.000239
0.000218
0.000247
0.000233
0.000233
0.000257
0.000244
0.000247
0.000239
0.000223
0.000249
0.000233
0.000254
0.000236
0.000236
0.000244
0.000254
0.000233
0.000210
0.000220
0.000223
0.000215
0.000207
0.000215
0.000231
0.000228
0.000257
0.000233
0.000244
0.000223
0.000231
0.000189
0.000226
0.000233
0.000202
0.000210
0.000239
0.000236
0.000223
0.000205
0.000226
0.000236
0.000215
0.000239
0.000223
0.000212
0.000210
0.000218
0.000220
0.000247
0.000233
0.000197
0.000247
0.000265
0.000233
0.000210
0.000231
0.000220
0.000212
0.000220
0.000249
0.000231
0.000189
0.000226
0.000226
0.000215
0.000231
0.000205
0.000197
0.000194
0.000191
0.000212
0.000220
0.000223
0.000228
0.000233
0.000249
0.000241
0.000262
0.000239
0.000254
0.000249
0.000215
0.000231
0.000228
0.000199
0.000257
0.000223
0.000223
0.000212
0.000220
0.000231
0.000218
0.000202
0.000241
0.000212
0.000233
0.000223
0.000228
0.000231
0.000239
0.000197
0.000197
0.000226
0.000236
0.000194
0.000241
0.000233
0.000233
0.000220
0.000233
0.000247
0.000228
0.000207
0.000212
0.000199
0.000184
0.000202
0.000239
0.000226
0.000257
0.000244
0.000247
0.000218
0.000231
0.000184
0.000212
0.000178
0.000202
0.000176
0.000178
0.000147
0.000191
0.000202
0.000199
0.000218
0.000212
0.000233
0.000262
0.000223
0.000252
0.000228
0.000236
0.000212
0.000231
0.000220
0.000202
0.000212
0.000207
0.000223
0.000236
0.000205
0.000215
0.000228
0.000226
0.000249
0.000220
0.000268
0.000236
0.000207
0.000228
0.000231
0.000226
0.000228
0.000236
0.000212
0.000233
0.000220
0.000210
0.000215
0.000215
0.000223
0.000239
0.000215
0.000252
0.000231
0.000226
0.000252
0.000231
0.000220
0.000223
0.000202
0.000223
0.000236
0.000226
0.000220
0.000228
0.000239
0.000228
0.000239
0.000241
0.000254
0.000226
0.000218
0.000228
0.000184
0.000212
0.000197
0.000228
0.000231
0.000218
0.000199
0.000215
0.000205
0.000212
0.000184
0.000233
0.000220
0.000207
0.000244
0.000233
0.000244
0.000226
0.000239
0.000241
0.000247
0.000254
0.000226
0.000249
0.000241
0.000220
0.000215
0.000207
0.000226
0.000205
0.000210
0.000231
0.000218
0.000226
0.000220
0.000262
0.000241
0.000241
0.000239
0.000260
0.000254
0.000244
0.000278
0.000252
0.000249
0.000226
0.000254
0.000247
0.000260
0.000252
0.000223
0.000218
0.000181
0.000176
0.000207
0.000231
0.000205
0.000247
0.000231
0.000244
0.000173
0.000197
0.000207
0.000218
0.000252
0.000268
0.000260
0.000231
0.000244
0.000257
0.000249
0.000231
0.000194
0.000199
0.000218
0.000205
0.000205
0.000252
0.000210
0.000210
0.000199
0.000212
0.000210
0.000236
0.000270
0.000307
0.000283
0.000257
0.000189
0.000191
0.000160
0.000176
0.000191
0.000207
0.000212
0.000262
0.000283
0.000286
0.000283
0.000268
0.000202
0.000165
0.000155
0.000142
0.000207
0.000218
0.000199
0.000210
0.000207
0.000226
0.000254
0.000265
0.000333
0.000341
0.000299
0.000296
0.000210
0.000178
0.000136
0.000176
0.000165
0.000186
0.000173
0.000157
0.000155
0.000157
0.000160
0.000197
0.000212
0.000210
0.000220
0.000249
0.000247
0.000252
0.000260
0.000325
0.000294
0.000291
0.000317
0.000310
0.000296
0.000286
0.000233
0.000223
0.000173
0.000163
0.000157
0.000157
0.000157
0.000165
0.000152
0.000147
0.000129
0.000157
0.000207
0.000286
0.000331
0.000417
0.000412
0.000438
0.000367
0.000341
0.000315
0.000244
0.000173
0.000205
0.000123
0.000084
0.000034
0.000071
0.000108
0.000131
0.000168
0.000210
0.000228
0.000257
0.000252
0.000249
0.000233
0.000231
0.000199
0.000212
0.000181
0.000191
0.000205
0.000249
0.000291
0.000239
0.000268
0.000273
0.000273
0.000333
0.000344
0.000367
0.000341
0.000312
0.000291
0.000247
0.000189
0.000152
0.000121
0.000100
0.000029
0.000021
0.000026
0.000097
0.000071
0.000037
-0.000105
-0.000304
-0.000729
-0.001488
-0.002411
-0.003603
-0.004970
-0.006489
-0.008155
-0.009852
-0.011492
-0.012990
-0.014510
-0.015832
-0.016968
-0.017999
-0.018632
-0.018970
-0.019154
-0.019114
-0.018752
-0.018243
-0.017503
-0.016672
-0.016081
-0.015753
-0.015441
-0.015105
-0.014846
-0.014457
-0.013851
-0.013258
-0.012862
-0.012411
-0.012072
-0.011881
-0.011547
-0.011233
-0.011093
-0.010752
-0.010348
-0.009947
-0.009509
-0.009052
-0.008829
-0.008785
-0.008724
-0.008659
-0.008593
-0.008464
-0.008268
-0.008176
-0.008157
-0.008121
-0.008084
-0.008092
-0.008207
-0.008270
-0.008307
-0.008425
-0.008404
-0.008357
-0.008328
-0.008299
-0.008226
-0.008220
-0.008268
-0.008113
-0.007976
-0.007924
-0.007848
-0.007751
-0.007706
-0.007722
-0.007677
-0.007638
-0.007648
-0.007449
-0.007184
-0.007037
-0.006958
-0.006772
-0.006709
-0.006811
-0.006767
-0.006638
-0.006523
-0.006216
-0.005980
-0.005817
-0.005662
-0.005565
-0.005531
-0.005473
-0.005376
-0.005313
-0.005284
-0.005195
-0.005119
-0.005069
-0.005019
-0.004967
-0.004946
-0.004954
-0.004917
-0.004815
-0.004778
-0.004694
-0.004702
-0.004718
-0.004760
-0.004886
-0.004851
-0.004781
-0.004723
-0.004602
-0.004534
-0.004503
-0.004516
-0.004497
-0.004440
-0.004440
-0.004466
-0.004461
-0.004426
-0.004408
-0.004303
-0.004143
-0.004161
-0.004185
-0.004201
-0.004243
-0.004290
-0.004426
-0.004419
-0.004366
-0.004363
-0.004363
-0.004311
-0.004245
-0.004182
-0.004096
-0.003993
-0.003931
-0.003959
-0.003944
-0.003891
-0.003833
-0.003726
-0.003647
-0.003550
-0.003432
-0.003345
-0.003251
-0.003067
-0.002968
-0.002975
-0.003023
-0.003083
-0.003193
-0.003282
-0.003277
-0.003272
-0.003303
-0.003303
-0.003256
-0.003285
-0.003301
-0.003296
-0.003361
-0.003435
-0.003495
-0.003566
-0.003540
-0.003435
-0.003351
-0.003222
-0.003099
-0.003044
-0.003012
-0.002999
-0.002910
-0.002842
-0.002787
-0.002750
-0.002710
-0.002716
-0.002713
-0.002797
-0.002808
-0.002776
-0.002724
-0.002666
-0.002564
-0.002472
-0.002417
-0.002453
-0.002474
-0.002553
-0.002689
-0.002815
-0.002876
-0.002920
-0.002931
-0.002823
-0.002716
-0.002653
-0.002603
-0.002464
-0.002356
-0.002354
-0.002396
-0.002340
-0.002283
-0.002427
-0.002487
-0.002535
-0.002571
-0.002658
-0.002658
-0.002626
-0.002574
-0.002592
-0.002411
-0.002285
-0.002209
-0.002086
-0.002015
-0.001992
-0.001939
-0.001939
-0.001963
-0.001989
-0.002062
-0.002167
-0.002217
-0.002325
-0.002388
-0.002443
-0.002398
-0.002322
-0.002215
-0.002078
-0.002002
-0.001936
-0.001926
-0.001918
-0.001981
-0.001999
-0.001989
-0.002013
-0.002096
-0.002170
-0.002159
-0.002178
-0.002212
-0.002209
-0.002207
-0.002178
-0.002183
-0.002204
-0.002215
-0.002222
-0.002196
-0.002207
-0.002154
-0.002159
-0.002175
-0.002225
-0.002267
-0.002304
-0.002228
-0.002110
-0.001984
-0.001860
-0.001831
-0.001845
-0.001774
-0.001729
-0.001713
-0.001734
-0.001703
-0.001774
-0.001900
-0.001978
-0.001971
-0.001986
-0.001960
-0.001894
-0.001727
-0.001622
-0.001506
-0.001412
-0.001372
-0.001425
-0.001451
-0.001456
-0.001524
-0.001538
-0.001517
-0.001545
-0.001566
-0.001635
-0.001745
-0.001803
-0.001873
-0.001963
-0.001910
-0.001852
-0.001803
-0.001787
-0.001745
-0.001687
-0.001679
-0.001679
-0.001658
-0.001624
-0.001598
-0.001616
-0.001616
-0.001650
-0.001677
-0.001700
-0.001779
-0.001805
-0.001803
-0.001795
-0.001824
-0.001795
-0.001873
-0.001963
-0.001952
-0.001887
-0.001873
-0.001837
-0.001724
-0.001637
-0.001593
-0.001496
-0.001406
-0.001385
-0.001288
-0.001296
-0.001309
-0.001422
-0.001438
-0.001462
-0.001435
-0.001414
-0.001454
-0.001443
-0.001477
-0.001545
-0.001606
-0.001677
-0.001708
-0.001737
-0.001708
-0.001653
-0.001587
-0.001530
-0.001427
-0.001354
-0.001301
-0.001286
-0.001286
-0.001309
-0.001309
-0.001273
-0.001236
-0.001223
-0.001197
-0.001225
-0.001280
-0.001383
-0.001412
-0.001454
-0.001459
-0.001454
-0.001409
-0.001388
-0.001349
-0.001346
-0.001288
-0.001246
-0.001218
-0.001210
-0.001249
-0.001325
-0.001359
-0.001406
-0.001378
-0.001396
-0.001409
-0.001443
-0.001422
-0.001412
-0.001383
-0.001338
-0.001367
-0.001375
-0.001336
-0.001343
-0.001354
-0.001301
-0.001236
-0.001254
-0.001238
-0.001170
-0.001084
-0.001026
-0.000981
-0.000950
-0.000981
-0.001021
-0.001089
-0.001123
-0.001086
-0.001115
-0.001160
-0.001202
-0.001262
-0.001364
-0.001378
-0.001346
-0.001362
-0.001354
-0.001283
-0.001225
-0.001144
-0.001071
-0.001000
-0.000994
-0.000971
-0.000924
-0.000879
-0.000942
-0.001021
-0.001071
-0.001118
-0.001231
-0.001267
-0.001322
-0.001364
-0.001309
-0.001262
-0.001280
-0.001286
-0.001273
-0.001309
-0.001330
-0.001236
-0.001131
-0.001078
-0.001068
-0.001081
-0.001086
-0.001094
-0.001055
-0.000963
-0.000968
-0.000968
-0.001013
-0.001031
-0.001073
-0.001065
-0.001152
-0.001244
-0.001273
-0.001307
-0.001296
-0.001249
-0.001228
-0.001183
-0.001204
-0.001168
-0.001139
-0.001073
-0.000966
-0.000869
-0.000824
-0.000853
-0.000911
-0.000984
-0.001029
-0.001089
-0.001136
-0.001144
-0.001147
-0.001144
-0.001147
-0.001126
-0.001094
-0.001036
-0.001018
-0.000963
-0.000953
-0.000892
-0.000871
-0.000858
-0.000816
-0.000795
-0.000811
-0.000824
-0.000837
-0.000850
-0.000905
-0.000913
-0.000976
-0.000984
-0.001026
-0.001010
-0.000963
-0.000953
-0.000945
-0.000934
-0.000950
-0.000966
-0.000929
-0.000884
-0.000890
-0.000829
-0.000871
-0.000900
-0.000837
-0.000816
-0.000808
-0.000811
-0.000790
-0.000803
-0.000887
-0.000926
-0.000939
-0.000955
-0.000987
-0.000987
-0.000997
-0.001036
-0.001073
-0.001055
-0.001031
-0.000971
-0.000987
-0.000945
-0.000934
-0.000905
-0.000890
-0.000863
-0.000840
-0.000855
-0.000863
-0.000953
-0.001023
-0.001060
-0.001126
-0.001097
-0.001115
-0.001115
-0.001157
-0.001128
-0.001094
-0.001002
-0.000976
-0.000968
-0.000973
-0.000971
-0.000960
-0.000879
-0.000803
-0.000706
-0.000729
-0.000667
-0.000714
-0.000769
-0.000795
-0.000832
-0.000882
-0.000890
-0.000916
-0.000897
-0.000924
-0.000876
-0.000911
-0.000973
-0.001000
-0.001008
-0.000994
-0.000918
-0.000863
-0.000777
-0.000771
-0.000756
-0.000774
-0.000816
-0.000863
-0.000874
-0.000866
-0.000850
-0.000827
-0.000879
-0.000976
-0.000955
-0.000989
-0.000997
-0.000976
-0.000929
-0.000934
-0.000929
-0.000924
-0.000926
-0.000916
-0.000890
-0.000918
-0.000876
-0.000858
-0.000837
-0.000850
-0.000777
-0.000719
-0.000719
-0.000779
-0.000764
-0.000761
-0.000821
-0.000842
-0.000842
-0.000866
-0.000869
-0.000850
-0.000771
-0.000779
-0.000737
-0.000771
-0.000785
-0.000808
-0.000819
-0.000758
-0.000664
-0.000606
-0.000514
-0.000509
-0.000506
-0.000522
-0.000593
-0.000651
-0.000706
-0.000766
-0.000824
-0.000834
-0.000858
-0.000866
-0.000848
-0.000774
-0.000724
-0.000771
-0.000766
-0.000819
-0.000824
-0.000813
-0.000787
-0.000727
-0.000701
-0.000630
-0.000622
-0.000577
-0.000551
-0.000572
-0.000585
-0.000619
-0.000674
-0.000722
-0.000690
-0.000761
-0.000790
-0.000855
-0.000750
-0.000766
-0.000761
-0.000703
-0.000619
-0.000640
-0.000643
-0.000648
-0.000664
-0.000677
-0.000648
-0.000685
-0.000677
-0.000722
-0.000714
-0.000729
-0.000708
-0.000737
-0.000790
-0.000790
-0.000816
-0.000837
-0.000850
-0.000811
-0.000777
-0.000745
-0.000693
-0.000651
-0.000669
-0.000669
-0.000674
-0.000627
-0.000635
-0.000627
-0.000538
-0.000567
-0.000556
-0.000504
-0.000485
-0.000467
-0.000459
-0.000499
-0.000562
-0.000640
-0.000708
-0.000790
-0.000769
-0.000764
-0.000722
-0.000774
-0.000711
-0.000659
-0.000619
-0.000604
-0.000535
-0.000501
-0.000493
-0.000388
-0.000336
-0.000373
-0.000365
-0.000422
-0.000478
-0.000601
-0.000672
-0.000695
-0.000716
-0.000722
-0.000703
-0.000695
-0.000614
-0.000583
-0.000564
-0.000504
-0.000480
-0.000504
-0.000546
-0.000533
-0.000567
-0.000590
-0.000638
-0.000627
-0.000606
-0.000604
-0.000604
-0.000583
-0.000525
-0.000504
-0.000462
-0.000449
-0.000433
-0.000472
-0.000530
-0.000590
-0.000619
-0.000638
-0.000611
-0.000619
-0.000580
-0.000583
-0.000509
-0.000501
-0.000483
-0.000533
-0.000535
-0.000559
-0.000569
-0.000609
-0.000577
-0.000585
-0.000588
-0.000638
-0.000640
-0.000674
-0.000627
-0.000614
-0.000646
-0.000585
-0.000572
-0.000583
-0.000559
-0.000525
-0.000467
-0.000436
-0.000417
-0.000388
-0.000373
-0.000375
-0.000399
-0.000438
-0.000512
-0.000525
-0.000556
-0.000535
-0.000506
-0.000559
-0.000517
-0.000520
-0.000525
-0.000533
-0.000546
-0.000567
-0.000572
-0.000567
-0.000543
-0.000546
-0.000541
-0.000543
-0.000496
-0.000441
-0.000522
-0.000580
-0.000611
-0.000682
-0.000640
-0.000617
-0.000567
-0.000512
-0.000457
-0.000451
-0.000443
-0.000464
-0.000446
-0.000446
-0.000467
-0.000464
-0.000457
-0.000475
-0.000454
-0.000462
-0.000446
-0.000433
-0.000399
-0.000375
-0.000367
-0.000370
-0.000428
-0.000478
-0.000535
-0.000554
-0.000480
-0.000459
-0.000478
-0.000449
-0.000475
-0.000520
-0.000451
-0.000467
-0.000464
-0.000478
-0.000499
-0.000457
-0.000478
-0.000428
-0.000386
-0.000417
-0.000404
-0.000365
-0.000375
-0.000375
-0.000354
-0.000336
-0.000336
-0.000352
-0.000360
-0.000436
-0.000478
-0.000535
-0.000564
-0.000598
-0.000622
-0.000601
-0.000572
-0.000548
-0.000496
-0.000514
-0.000488
-0.000467
-0.000464
-0.000470
-0.000443
-0.000457
-0.000478
-0.000509
-0.000530
-0.000546
-0.000538
-0.000548
-0.000506
-0.000478
-0.000449
-0.000412
-0.000339
-0.000318
-0.000281
-0.000289
-0.000294
-0.000307
-0.000341
-0.000367
-0.000373
-0.000402
-0.000378
-0.000386
-0.000404
-0.000388
-0.000373
-0.000354
-0.000333
-0.000352
-0.000339
-0.000323
-0.000360
-0.000333
-0.000310
-0.000417
-0.000475
-0.000483
-0.000496
-0.000467
-0.000402
-0.000367
-0.000362
-0.000354
-0.000360
-0.000404
-0.000420
-0.000404
-0.000373
-0.000449
-0.000446
-0.000443
-0.000462
-0.000438
-0.000483
-0.000493
-0.000462
-0.000438
-0.000412
-0.000386
-0.000339
-0.000370
-0.000386
-0.000373
-0.000365
-0.000388
-0.000404
-0.000402
-0.000417
-0.000386
-0.000352
-0.000367
-0.000402
-0.000457
-0.000478
-0.000480
-0.000449
-0.000420
-0.000370
-0.000394
-0.000391
-0.000394
-0.000386
-0.000354
-0.000352
-0.000367
-0.000357
-0.000360
-0.000349
-0.000302
-0.000270
-0.000273
-0.000276
-0.000278
-0.000247
-0.000315
-0.000412
-0.000472
-0.000554
-0.000556
-0.000514
-0.000512
-0.000467
-0.000375
-0.000378
-0.000370
-0.000333
-0.000344
-0.000328
-0.000354
-0.000367
-0.000375
-0.000428
-0.000420
-0.000394
-0.000422
-0.000425
-0.000381
-0.000357
-0.000399
-0.000407
-0.000399
-0.000391
-0.000415
-0.000451
-0.000417
-0.000394
-0.000407
-0.000391
-0.000402
-0.000386
-0.000360
-0.000352
-0.000331
-0.000270
-0.000315
-0.000302
-0.000289
-0.000341
-0.000304
-0.000281
-0.000270
-0.000270
-0.000260
-0.000234
-0.000257
-0.000255
-0.000244
-0.000218
-0.000202
-0.000236
-0.000226
-0.000257
-0.000299
-0.000239
-0.000257
-0.000281
-0.000289
-0.000331
-0.000339
-0.000297
-0.000289
-0.000315
-0.000289
-0.000318
-0.000346
-0.000365
-0.000346
-0.000336
-0.000328
-0.000320
-0.000320
-0.000276
-0.000291
-0.000220
-0.000244
-0.000226
-0.000202
-0.000215
-0.000226
-0.000268
-0.000231
-0.000228
-0.000276
-0.000265
-0.000299
-0.000281
-0.000286
-0.000281
-0.000315
-0.000310
-0.000315
-0.000310
-0.000352
-0.000331
-0.000320
-0.000349
-0.000312
-0.000268
-0.000257
-0.000249
-0.000226
-0.000231
-0.000281
-0.000289
-0.000241
-0.000239
-0.000234
-0.000207
-0.000268
-0.000312
-0.000302
-0.000323
-0.000315
-0.000270
-0.000278
-0.000252
-0.000205
-0.000220
-0.000234
-0.000241
-0.000231
-0.000223
-0.000226
-0.000210
-0.000228
-0.000210
-0.000234
-0.000199
-0.000192
-0.000215
-0.000218
-0.000213
-0.000218
-0.000189
-0.000210
-0.000210
-0.000207
-0.000218
-0.000247
-0.000247
-0.000231
-0.000197
-0.000163
-0.000150
-0.000121
-0.000116
-0.000165
-0.000165
-0.000176
-0.000189
-0.000213
-0.000241
-0.000297
-0.000320
-0.000352
-0.000352
-0.000357
-0.000386
-0.000370
-0.000357
-0.000302
-0.000312
-0.000291
-0.000268
-0.000265
-0.000304
-0.000318
-0.000318
-0.000325
-0.000278
-0.000249
-0.000210
-0.000189
-0.000134
-0.000121
-0.000116
-0.000126
-0.000184
-0.000186
-0.000234
-0.000231
-0.000184
-0.000223
-0.000210
-0.000205
-0.000228
-0.000213
-0.000205
-0.000165
-0.000150
-0.000147
-0.000100
-0.000136
-0.000142
-0.000218
-0.000189
-0.000186
-0.000205
-0.000207
-0.000220
-0.000286
-0.000291
-0.000294
-0.000302
-0.000260
-0.000228
