Start time = 18:19:58.568413
End time = 18:20:08.506700
laser_energy = 6.550
channel_1_dial = 850
channel_2_dial = 850
channel_3_dial = 850
channel_4_dial = 850
NG-1-LII = 0
NG-3-15399 = 0
NG-4-LII = 0
NG-4-15399 = 0
NG-5-LII = 0
NG-5-15399 = 0
NG-9-LII = 0
NG-9-15399 = 0
NG-10-01 = 0
NG-11-15399 = 0
NG-12-15399 = 0
NG-4A-2001 = 0
NG-4B-2001 = 0
NG-5A-2001 = 0
NG-3-2001 = 0
NG-5B-2001 = 0
NG-1-2001 = 0
NG-9-2001 = 0
NG-10-2001 = 0
NG-11-2001 = 0
NG-12-2001 = 0
AND-200SN09 = 0
AND-100SN09 = 0
AND-050SN09 = 0
AND-030SN09 = 0
AND-015SN05 = 0
PMT#1Voltage = 0
PMT#2Voltage = 0
t0(sec) = 0.000000E+0
dt(sec) = 4.000000E-10
F1:INSP "
DESCRIPTOR_NAME    : WAVEDESC           
TEMPLATE_NAME      : LECROY_2_3         
COMM_TYPE          : word               
COMM_ORDER         : HIFIRST            
WAVE_DESCRIPTOR    : 346                
USER_TEXT          : 0                  
RES_DESC1          : 0                  
TRIGTIME_ARRAY     : 0                  
RIS_TIME_ARRAY     : 0                  
RES_ARRAY1         : 0                  
WAVE_ARRAY_1       : 10002              
WAVE_ARRAY_2       : 0                  
RES_ARRAY2         : 0                  
RES_ARRAY3         : 0                  
INSTRUMENT_NAME    : LECROYHDO6104      
INSTRUMENT_NUMBER  : 6308               
TRACE_LABEL        :                    
RESERVED1          : 5001               
RESERVED2          : 0                  
WAVE_ARRAY_COUNT   : 5001               
PNTS_PER_SCREEN    : 5000               
FIRST_VALID_PNT    : 0                  
LAST_VALID_PNT     : 5000               
FIRST_POINT        : 0                  
SPARSING_FACTOR    : 1                  
SEGMENT_INDEX      : 0                  
SUBARRAY_COUNT     : 1                  
SWEEPS_PER_ACQ     : 200                
POINTS_PER_PAIR    : 0                  
PAIR_OFFSET        : 0                  
VERTICAL_GAIN      : 2.6238e-006        
VERTICAL_OFFSET    : 6.5501e-002        
MAX_VALUE          : 3.0816e+004        
MIN_VALUE          : 1.3388e+004        
NOMINAL_BITS       : 16                 
NOM_SUBARRAY_COUNT : 1                  
HORIZ_INTERVAL     : 4.0000e-010        
HORIZ_OFFSET       : -2.00000000e-007   
PIXEL_OFFSET       : -2.00000000e-007   
VERTUNIT           : Unit Name = V
HORUNIT            : Unit Name = S
HORIZ_UNCERTAINTY  : 1.0000e-012        
TRIGGER_TIME       : Date = APR 17, 2024, Time = 19:19:54.444956283
ACQ_DURATION       : 9.9988e+000        
RECORD_TYPE        : single_sweep       
PROCESSING_DONE    : no_processing      
RESERVED5          : 0                  
RIS_SWEEPS         : 1                  
TIMEBASE           : 200_ns/div         
VERT_COUPLING      : DC_50_Ohms         
PROBE_ATT          : 1.0000e+000        
FIXED_VERT_GAIN    : 5_mV/div           
BANDWIDTH_LIMIT    : off                
VERTICAL_VERNIER   : 1.1600e+000        
ACQ_VERT_OFFSET    : 0.0000e+000        
WAVE_SOURCE        : UNKNOWN            
"
0.000176
0.000178
0.000194
0.000184
0.000178
0.000197
0.000194
0.000220
0.000215
0.000189
0.000215
0.000207
0.000189
0.000181
0.000202
0.000189
0.000191
0.000191
0.000194
0.000202
0.000189
0.000178
0.000218
0.000178
0.000202
0.000186
0.000202
0.000197
0.000228
0.000176
0.000181
0.000207
0.000176
0.000178
0.000173
0.000178
0.000212
0.000178
0.000199
0.000205
0.000212
0.000218
0.000184
0.000176
0.000212
0.000184
0.000207
0.000199
0.000220
0.000202
0.000186
0.000207
0.000165
0.000178
0.000189
0.000223
0.000184
0.000186
0.000186
0.000194
0.000199
0.000186
0.000191
0.000191
0.000157
0.000160
0.000202
0.000212
0.000207
0.000189
0.000205
0.000220
0.000197
0.000184
0.000191
0.000197
0.000197
0.000191
0.000215
0.000202
0.000178
0.000184
0.000184
0.000218
0.000212
0.000181
0.000212
0.000191
0.000205
0.000178
0.000176
0.000176
0.000181
0.000165
0.000220
0.000197
0.000168
0.000173
0.000173
0.000189
0.000173
0.000147
0.000176
0.000191
0.000160
0.000199
0.000197
0.000157
0.000194
0.000165
0.000189
0.000207
0.000197
0.000210
0.000215
0.000215
0.000184
0.000205
0.000205
0.000191
0.000223
0.000207
0.000205
0.000202
0.000181
0.000178
0.000186
0.000189
0.000199
0.000189
0.000197
0.000184
0.000178
0.000176
0.000212
0.000178
0.000194
0.000178
0.000176
0.000168
0.000220
0.000170
0.000184
0.000210
0.000173
0.000215
0.000210
0.000197
0.000223
0.000210
0.000202
0.000218
0.000215
0.000168
0.000202
0.000205
0.000220
0.000220
0.000207
0.000205
0.000215
0.000202
0.000205
0.000197
0.000178
0.000189
0.000163
0.000186
0.000181
0.000142
0.000189
0.000194
0.000168
0.000194
0.000212
0.000212
0.000202
0.000215
0.000212
0.000191
0.000202
0.000199
0.000215
0.000205
0.000226
0.000194
0.000184
0.000199
0.000210
0.000186
0.000207
0.000210
0.000202
0.000205
0.000212
0.000199
0.000197
0.000178
0.000189
0.000191
0.000184
0.000189
0.000205
0.000228
0.000215
0.000215
0.000199
0.000186
0.000218
0.000181
0.000186
0.000168
0.000184
0.000149
0.000173
0.000199
0.000189
0.000202
0.000176
0.000189
0.000197
0.000173
0.000199
0.000233
0.000228
0.000223
0.000199
0.000218
0.000228
0.000218
0.000194
0.000197
0.000212
0.000189
0.000207
0.000218
0.000205
0.000207
0.000186
0.000207
0.000199
0.000191
0.000218
0.000210
0.000215
0.000215
0.000215
0.000191
0.000215
0.000202
0.000207
0.000226
0.000184
0.000165
0.000223
0.000194
0.000186
0.000207
0.000199
0.000202
0.000220
0.000207
0.000202
0.000189
0.000181
0.000181
0.000191
0.000205
0.000210
0.000189
0.000236
0.000212
0.000199
0.000191
0.000226
0.000189
0.000186
0.000184
0.000181
0.000199
0.000176
0.000165
0.000178
0.000184
0.000165
0.000173
0.000170
0.000181
0.000184
0.000176
0.000176
0.000202
0.000176
0.000197
0.000199
0.000186
0.000163
0.000191
0.000149
0.000186
0.000199
0.000176
0.000197
0.000184
0.000212
0.000176
0.000186
0.000184
0.000191
0.000186
0.000170
0.000170
0.000186
0.000144
0.000178
0.000197
0.000220
0.000194
0.000215
0.000218
0.000231
0.000202
0.000199
0.000226
0.000202
0.000186
0.000218
0.000205
0.000207
0.000202
0.000205
0.000218
0.000199
0.000178
0.000194
0.000191
0.000205
0.000189
0.000205
0.000199
0.000202
0.000184
0.000194
0.000202
0.000199
0.000197
0.000194
0.000212
0.000202
0.000226
0.000210
0.000228
0.000205
0.000197
0.000194
0.000226
0.000186
0.000168
0.000199
0.000181
0.000155
0.000181
0.000181
0.000199
0.000205
0.000178
0.000210
0.000210
0.000194
0.000168
0.000202
0.000202
0.000184
0.000176
0.000205
0.000239
0.000215
0.000218
0.000231
0.000218
0.000207
0.000207
0.000212
0.000210
0.000181
0.000186
0.000212
0.000189
0.000194
0.000181
0.000212
0.000197
0.000202
0.000194
0.000186
0.000173
0.000205
0.000181
0.000212
0.000212
0.000233
0.000207
0.000215
0.000199
0.000197
0.000215
0.000220
0.000254
0.000218
0.000197
0.000210
0.000152
0.000189
0.000184
0.000184
0.000231
0.000212
0.000191
0.000186
0.000202
0.000202
0.000178
0.000170
0.000157
0.000173
0.000194
0.000207
0.000226
0.000241
0.000236
0.000215
0.000231
0.000226
0.000207
0.000244
0.000254
0.000278
0.000244
0.000173
0.000134
0.000121
0.000121
0.000149
0.000163
0.000186
0.000178
0.000194
0.000265
0.000268
0.000257
0.000239
0.000199
0.000157
0.000129
0.000139
0.000147
0.000178
0.000165
0.000173
0.000184
0.000202
0.000239
0.000247
0.000312
0.000328
0.000262
0.000265
0.000233
0.000165
0.000144
0.000160
0.000184
0.000197
0.000186
0.000178
0.000207
0.000173
0.000165
0.000191
0.000202
0.000197
0.000176
0.000194
0.000202
0.000176
0.000199
0.000223
0.000247
0.000241
0.000228
0.000249
0.000233
0.000215
0.000170
0.000144
0.000139
0.000129
0.000136
0.000149
0.000149
0.000163
0.000121
0.000129
0.000163
0.000136
0.000178
0.000265
0.000331
0.000375
0.000386
0.000396
0.000357
0.000289
0.000241
0.000194
0.000176
0.000131
0.000094
0.000066
0.000031
0.000042
0.000102
0.000152
0.000186
0.000189
0.000239
0.000299
0.000304
0.000268
0.000247
0.000233
0.000178
0.000155
0.000110
0.000118
0.000129
0.000144
0.000189
0.000155
0.000163
0.000178
0.000220
0.000262
0.000278
0.000310
0.000294
0.000289
0.000252
0.000239
0.000226
0.000199
0.000110
0.000087
0.000024
0.000026
0.000037
0.000092
0.000087
0.000021
-0.000003
-0.000116
-0.000318
-0.000661
-0.001094
-0.001682
-0.002393
-0.003136
-0.003902
-0.004707
-0.005413
-0.006155
-0.006832
-0.007410
-0.007987
-0.008417
-0.008800
-0.009078
-0.009183
-0.009217
-0.009097
-0.008855
-0.008564
-0.008294
-0.008084
-0.007969
-0.007787
-0.007572
-0.007326
-0.007061
-0.006856
-0.006567
-0.006379
-0.006242
-0.006079
-0.005883
-0.005702
-0.005565
-0.005437
-0.005248
-0.005080
-0.004925
-0.004768
-0.004605
-0.004458
-0.004243
-0.004049
-0.003857
-0.003752
-0.003734
-0.003739
-0.003726
-0.003736
-0.003723
-0.003681
-0.003624
-0.003613
-0.003589
-0.003610
-0.003681
-0.003718
-0.003778
-0.003807
-0.003776
-0.003773
-0.003726
-0.003721
-0.003789
-0.003805
-0.003847
-0.003881
-0.003823
-0.003794
-0.003823
-0.003875
-0.003917
-0.003847
-0.003844
-0.003805
-0.003705
-0.003610
-0.003477
-0.003303
-0.003049
-0.002829
-0.002687
-0.002582
-0.002524
-0.002506
-0.002550
-0.002585
-0.002511
-0.002516
-0.002558
-0.002561
-0.002516
-0.002600
-0.002645
-0.002629
-0.002616
-0.002634
-0.002616
-0.002550
-0.002493
-0.002451
-0.002382
-0.002301
-0.002233
-0.002180
-0.002138
-0.002054
-0.001992
-0.001976
-0.001968
-0.001997
-0.002062
-0.002096
-0.002117
-0.002138
-0.002157
-0.002183
-0.002212
-0.002204
-0.002196
-0.002157
-0.002133
-0.002104
-0.002068
-0.001999
-0.001965
-0.001910
-0.001881
-0.001810
-0.001821
-0.001821
-0.001784
-0.001711
-0.001658
-0.001674
-0.001729
-0.001810
-0.001852
-0.001884
-0.001873
-0.001837
-0.001782
-0.001774
-0.001716
-0.001635
-0.001611
-0.001566
-0.001448
-0.001388
-0.001378
-0.001456
-0.001456
-0.001485
-0.001551
-0.001524
-0.001430
-0.001422
-0.001477
-0.001480
-0.001572
-0.001640
-0.001643
-0.001653
-0.001690
-0.001729
-0.001782
-0.001831
-0.001860
-0.001892
-0.001860
-0.001745
-0.001648
-0.001527
-0.001454
-0.001364
-0.001288
-0.001294
-0.001291
-0.001288
-0.001241
-0.001294
-0.001294
-0.001291
-0.001254
-0.001262
-0.001254
-0.001181
-0.001157
-0.001157
-0.001113
-0.001113
-0.001168
-0.001223
-0.001236
-0.001246
-0.001301
-0.001296
-0.001309
-0.001385
-0.001433
-0.001425
-0.001346
-0.001320
-0.001252
-0.001136
-0.001092
-0.001044
-0.001031
-0.001042
-0.001097
-0.001128
-0.001191
-0.001228
-0.001286
-0.001286
-0.001241
-0.001191
-0.001097
-0.001097
-0.001047
-0.000924
-0.000861
-0.000853
-0.000790
-0.000732
-0.000785
-0.000911
-0.000960
-0.001013
-0.001113
-0.001173
-0.001212
-0.001189
-0.001141
-0.001152
-0.001120
-0.001089
-0.001026
-0.001013
-0.001065
-0.001026
-0.000963
-0.000947
-0.000892
-0.000840
-0.000790
-0.000798
-0.000795
-0.000824
-0.000845
-0.000916
-0.000905
-0.000884
-0.000897
-0.000850
-0.000811
-0.000800
-0.000777
-0.000769
-0.000827
-0.000824
-0.000766
-0.000832
-0.000829
-0.000887
-0.000934
-0.000971
-0.000926
-0.000861
-0.000806
-0.000758
-0.000687
-0.000677
-0.000714
-0.000766
-0.000811
-0.000863
-0.000895
-0.000950
-0.001005
-0.001023
-0.001042
-0.001060
-0.001010
-0.000958
-0.000905
-0.000869
-0.000764
-0.000743
-0.000737
-0.000680
-0.000653
-0.000638
-0.000656
-0.000617
-0.000604
-0.000614
-0.000651
-0.000716
-0.000766
-0.000887
-0.000950
-0.001044
-0.001110
-0.001178
-0.001191
-0.001162
-0.001076
-0.001018
-0.000932
-0.000858
-0.000750
-0.000672
-0.000590
-0.000504
-0.000433
-0.000386
-0.000415
-0.000438
-0.000470
-0.000493
-0.000533
-0.000606
-0.000716
-0.000774
-0.000869
-0.000950
-0.000992
-0.001031
-0.001086
-0.001118
-0.001052
-0.000963
-0.000892
-0.000771
-0.000732
-0.000685
-0.000646
-0.000646
-0.000609
-0.000656
-0.000690
-0.000669
-0.000664
-0.000656
-0.000661
-0.000601
-0.000598
-0.000664
-0.000714
-0.000750
-0.000787
-0.000787
-0.000790
-0.000758
-0.000708
-0.000698
-0.000635
-0.000606
-0.000569
-0.000541
-0.000535
-0.000569
-0.000564
-0.000567
-0.000567
-0.000564
-0.000583
-0.000625
-0.000693
-0.000724
-0.000745
-0.000761
-0.000735
-0.000729
-0.000687
-0.000701
-0.000674
-0.000619
-0.000580
-0.000554
-0.000514
-0.000485
-0.000475
-0.000464
-0.000483
-0.000504
-0.000491
-0.000535
-0.000551
-0.000622
-0.000687
-0.000748
-0.000756
-0.000753
-0.000719
-0.000753
-0.000769
-0.000766
-0.000819
-0.000792
-0.000750
-0.000708
-0.000643
-0.000559
-0.000499
-0.000430
-0.000436
-0.000404
-0.000451
-0.000483
-0.000509
-0.000493
-0.000520
-0.000569
-0.000577
-0.000630
-0.000625
-0.000630
-0.000619
-0.000601
-0.000575
-0.000546
-0.000551
-0.000493
-0.000420
-0.000354
-0.000265
-0.000199
-0.000234
-0.000273
-0.000273
-0.000304
-0.000323
-0.000333
-0.000333
-0.000378
-0.000436
-0.000535
-0.000569
-0.000577
-0.000580
-0.000577
-0.000522
-0.000480
-0.000506
-0.000464
-0.000433
-0.000402
-0.000412
-0.000409
-0.000391
-0.000436
-0.000470
-0.000457
-0.000512
-0.000512
-0.000543
-0.000527
-0.000512
-0.000525
-0.000520
-0.000522
-0.000517
-0.000509
-0.000520
-0.000548
-0.000478
-0.000454
-0.000407
-0.000312
-0.000286
-0.000302
-0.000270
-0.000241
-0.000199
-0.000241
-0.000262
-0.000270
-0.000260
-0.000307
-0.000291
-0.000328
-0.000349
-0.000404
-0.000464
-0.000533
-0.000564
-0.000614
-0.000609
-0.000611
-0.000564
-0.000501
-0.000425
-0.000362
-0.000312
-0.000278
-0.000239
-0.000194
-0.000210
-0.000276
-0.000286
-0.000323
-0.000344
-0.000344
-0.000333
-0.000349
-0.000388
-0.000388
-0.000399
-0.000430
-0.000412
-0.000441
-0.000430
-0.000443
-0.000430
-0.000367
-0.000289
-0.000202
-0.000160
-0.000144
-0.000131
-0.000155
-0.000205
-0.000189
-0.000244
-0.000302
-0.000278
-0.000352
-0.000367
-0.000443
-0.000464
-0.000480
-0.000548
-0.000538
-0.000483
-0.000459
-0.000436
-0.000391
-0.000339
-0.000349
-0.000297
-0.000260
-0.000265
-0.000199
-0.000205
-0.000220
-0.000268
-0.000336
-0.000352
-0.000360
-0.000373
-0.000402
-0.000402
-0.000430
-0.000394
-0.000430
-0.000409
-0.000404
-0.000443
-0.000454
-0.000438
-0.000467
-0.000478
-0.000441
-0.000407
-0.000383
-0.000304
-0.000249
-0.000186
-0.000215
-0.000257
-0.000283
-0.000357
-0.000370
-0.000378
-0.000412
-0.000349
-0.000367
-0.000378
-0.000381
-0.000386
-0.000373
-0.000367
-0.000331
-0.000257
-0.000239
-0.000252
-0.000205
-0.000173
-0.000144
-0.000121
-0.000131
-0.000152
-0.000171
-0.000178
-0.000239
-0.000244
-0.000252
-0.000336
-0.000383
-0.000457
-0.000504
-0.000541
-0.000572
-0.000541
-0.000525
-0.000443
-0.000375
-0.000370
-0.000370
-0.000352
-0.000344
-0.000370
-0.000328
-0.000252
-0.000228
-0.000213
-0.000189
-0.000186
-0.000207
-0.000239
-0.000270
-0.000268
-0.000268
-0.000318
-0.000318
-0.000307
-0.000270
-0.000270
-0.000320
-0.000289
-0.000286
-0.000294
-0.000294
-0.000278
-0.000249
-0.000231
-0.000262
-0.000270
-0.000257
-0.000289
-0.000307
-0.000315
-0.000281
-0.000270
-0.000276
-0.000291
-0.000310
-0.000297
-0.000283
-0.000283
-0.000310
-0.000302
-0.000289
-0.000249
-0.000262
-0.000249
-0.000202
-0.000210
-0.000194
-0.000168
-0.000199
-0.000210
-0.000189
-0.000241
-0.000265
-0.000276
-0.000320
-0.000360
-0.000373
-0.000333
-0.000304
-0.000234
-0.000173
-0.000116
-0.000102
-0.000068
-0.000053
-0.000060
-0.000092
-0.000076
-0.000095
-0.000095
-0.000108
-0.000136
-0.000155
-0.000192
-0.000210
-0.000218
-0.000247
-0.000192
-0.000215
-0.000265
-0.000270
-0.000307
-0.000341
-0.000315
-0.000304
-0.000276
-0.000236
-0.000189
-0.000194
-0.000189
-0.000173
-0.000136
-0.000155
-0.000186
-0.000213
-0.000213
-0.000189
-0.000215
-0.000213
-0.000194
-0.000207
-0.000218
-0.000234
-0.000273
-0.000278
-0.000278
-0.000241
-0.000231
-0.000255
-0.000215
-0.000194
-0.000157
-0.000126
-0.000139
-0.000116
-0.000068
-0.000123
-0.000108
-0.000105
-0.000155
-0.000197
-0.000226
-0.000265
-0.000294
-0.000388
-0.000433
-0.000425
-0.000396
-0.000415
-0.000341
-0.000341
-0.000304
-0.000273
-0.000213
-0.000142
-0.000136
-0.000163
-0.000171
-0.000155
-0.000176
-0.000207
-0.000155
-0.000142
-0.000168
-0.000194
-0.000226
-0.000241
-0.000257
-0.000268
-0.000289
-0.000249
-0.000249
-0.000239
-0.000218
-0.000184
-0.000163
-0.000168
-0.000155
-0.000168
-0.000165
-0.000139
-0.000118
-0.000144
-0.000126
-0.000129
-0.000139
-0.000176
-0.000157
-0.000173
-0.000197
-0.000197
-0.000205
-0.000228
-0.000192
-0.000160
-0.000184
-0.000147
-0.000102
-0.000060
-0.000068
-0.000032
-0.000032
-0.000008
-0.000026
-0.000055
-0.000131
-0.000144
-0.000192
-0.000176
-0.000142
-0.000147
-0.000192
-0.000210
-0.000226
-0.000215
-0.000234
-0.000244
-0.000197
-0.000192
-0.000241
-0.000202
-0.000189
-0.000202
-0.000194
-0.000210
-0.000207
-0.000210
-0.000192
-0.000192
-0.000202
-0.000202
-0.000228
-0.000226
-0.000223
-0.000186
-0.000181
-0.000210
-0.000171
-0.000178
-0.000178
-0.000186
-0.000194
-0.000207
-0.000241
-0.000197
-0.000165
-0.000139
-0.000089
-0.000029
-0.000029
-0.000026
-0.000063
-0.000079
-0.000100
-0.000136
-0.000163
-0.000226
-0.000268
-0.000247
-0.000265
-0.000281
-0.000304
-0.000299
-0.000260
-0.000270
-0.000294
-0.000265
-0.000210
-0.000199
-0.000192
-0.000144
-0.000113
-0.000076
-0.000055
-0.000053
-0.000055
-0.000068
-0.000066
-0.000063
-0.000097
-0.000095
-0.000105
-0.000165
-0.000155
-0.000202
-0.000220
-0.000197
-0.000168
-0.000178
-0.000142
-0.000131
-0.000121
-0.000134
-0.000192
-0.000165
-0.000199
-0.000171
-0.000126
-0.000100
-0.000110
-0.000134
-0.000123
-0.000142
-0.000116
-0.000144
-0.000184
-0.000178
-0.000144
-0.000134
-0.000102
-0.000110
-0.000063
-0.000100
-0.000095
-0.000032
-0.000042
-0.000029
-0.000013
0.000003
-0.000024
-0.000042
-0.000060
-0.000105
-0.000155
-0.000231
-0.000228
-0.000210
-0.000213
-0.000234
-0.000236
-0.000215
-0.000186
-0.000226
-0.000173
-0.000116
-0.000121
-0.000121
-0.000102
-0.000053
-0.000053
-0.000081
-0.000095
-0.000102
-0.000063
-0.000058
-0.000050
-0.000042
-0.000050
-0.000058
-0.000100
-0.000084
-0.000095
-0.000118
-0.000100
-0.000097
-0.000105
-0.000116
-0.000134
-0.000084
-0.000100
-0.000050
-0.000011
-0.000013
-0.000042
-0.000045
-0.000034
-0.000063
-0.000089
-0.000108
-0.000097
-0.000089
-0.000102
-0.000126
-0.000126
-0.000097
-0.000110
-0.000126
-0.000084
-0.000123
-0.000168
-0.000173
-0.000142
-0.000147
-0.000136
-0.000092
-0.000042
-0.000013
-0.000018
-0.000024
-0.000042
-0.000013
-0.000005
-0.000037
-0.000108
-0.000123
-0.000181
-0.000207
-0.000241
-0.000268
-0.000265
-0.000239
-0.000194
-0.000142
-0.000110
-0.000131
-0.000087
-0.000116
-0.000157
-0.000168
-0.000168
-0.000178
-0.000168
-0.000181
-0.000121
-0.000087
-0.000079
-0.000095
-0.000063
-0.000074
-0.000079
-0.000076
-0.000021
-0.000024
-0.000005
0.000010
-0.000042
-0.000034
-0.000071
-0.000076
-0.000074
-0.000071
-0.000037
-0.000016
-0.000029
-0.000034
-0.000063
-0.000136
-0.000150
-0.000152
-0.000213
-0.000205
-0.000171
-0.000171
-0.000108
-0.000134
-0.000095
-0.000079
-0.000053
-0.000050
-0.000060
-0.000058
-0.000055
-0.000095
-0.000095
-0.000076
-0.000084
-0.000139
-0.000142
-0.000129
-0.000129
-0.000139
-0.000118
-0.000076
-0.000042
-0.000037
-0.000055
-0.000063
-0.000071
-0.000074
-0.000063
-0.000053
-0.000013
0.000013
-0.000000
0.000016
-0.000016
-0.000063
-0.000084
-0.000116
-0.000105
-0.000089
-0.000058
-0.000055
-0.000029
-0.000045
-0.000058
-0.000097
-0.000105
-0.000168
-0.000215
-0.000210
-0.000157
-0.000123
-0.000144
-0.000144
-0.000160
-0.000155
-0.000134
-0.000150
-0.000157
-0.000155
-0.000171
-0.000189
-0.000157
-0.000131
-0.000108
-0.000131
-0.000134
-0.000126
-0.000118
-0.000134
-0.000139
-0.000155
-0.000194
-0.000147
-0.000150
-0.000123
-0.000071
-0.000079
-0.000060
-0.000084
-0.000081
-0.000089
-0.000097
-0.000087
-0.000050
-0.000045
-0.000053
-0.000079
-0.000071
-0.000066
-0.000063
-0.000055
-0.000045
-0.000047
-0.000047
-0.000089
-0.000050
-0.000047
-0.000047
-0.000074
-0.000018
-0.000005
0.000013
0.000026
0.000010
0.000003
-0.000000
-0.000005
-0.000024
-0.000055
-0.000050
-0.000063
-0.000076
-0.000068
-0.000092
-0.000097
-0.000116
-0.000118
-0.000121
-0.000121
-0.000110
-0.000105
-0.000100
-0.000076
-0.000089
-0.000066
-0.000018
-0.000032
0.000005
-0.000011
0.000008
-0.000008
-0.000000
0.000010
0.000016
-0.000013
-0.000055
-0.000034
-0.000074
-0.000102
-0.000102
-0.000087
-0.000081
-0.000081
-0.000045
-0.000024
-0.000021
0.000003
0.000021
-0.000000
0.000021
-0.000003
0.000016
0.000018
0.000021
0.000029
0.000008
-0.000005
-0.000037
-0.000042
-0.000013
-0.000021
0.000010
0.000005
0.000031
