Start time = 18:23:44.602808
End time = 18:23:54.546872
laser_energy = 6.550
channel_1_dial = 850
channel_2_dial = 850
channel_3_dial = 850
channel_4_dial = 850
NG-1-LII = 0
NG-3-15399 = 0
NG-4-LII = 0
NG-4-15399 = 0
NG-5-LII = 0
NG-5-15399 = 0
NG-9-LII = 0
NG-9-15399 = 0
NG-10-01 = 0
NG-11-15399 = 0
NG-12-15399 = 0
NG-4A-2001 = 0
NG-4B-2001 = 0
NG-5A-2001 = 0
NG-3-2001 = 0
NG-5B-2001 = 0
NG-1-2001 = 0
NG-9-2001 = 0
NG-10-2001 = 0
NG-11-2001 = 0
NG-12-2001 = 0
AND-200SN09 = 0
AND-100SN09 = 0
AND-050SN09 = 0
AND-030SN09 = 0
AND-015SN05 = 0
PMT#1Voltage = 0
PMT#2Voltage = 0
t0(sec) = 0.000000E+0
dt(sec) = 4.000000E-10
F1:INSP "
DESCRIPTOR_NAME    : WAVEDESC           
TEMPLATE_NAME      : LECROY_2_3         
COMM_TYPE          : word               
COMM_ORDER         : HIFIRST            
WAVE_DESCRIPTOR    : 346                
USER_TEXT          : 0                  
RES_DESC1          : 0                  
TRIGTIME_ARRAY     : 0                  
RIS_TIME_ARRAY     : 0                  
RES_ARRAY1         : 0                  
WAVE_ARRAY_1       : 10002              
WAVE_ARRAY_2       : 0                  
RES_ARRAY2         : 0                  
RES_ARRAY3         : 0                  
INSTRUMENT_NAME    : LECROYHDO6104      
INSTRUMENT_NUMBER  : 6308               
TRACE_LABEL        :                    
RESERVED1          : 5001               
RESERVED2          : 0                  
WAVE_ARRAY_COUNT   : 5001               
PNTS_PER_SCREEN    : 5000               
FIRST_VALID_PNT    : 0                  
LAST_VALID_PNT     : 5000               
FIRST_POINT        : 0                  
SPARSING_FACTOR    : 1                  
SEGMENT_INDEX      : 0                  
SUBARRAY_COUNT     : 1                  
SWEEPS_PER_ACQ     : 200                
POINTS_PER_PAIR    : 0                  
PAIR_OFFSET        : 0                  
VERTICAL_GAIN      : 2.6238e-006        
VERTICAL_OFFSET    : 6.5501e-002        
MAX_VALUE          : 3.0816e+004        
MIN_VALUE          : 1.3388e+004        
NOMINAL_BITS       : 16                 
NOM_SUBARRAY_COUNT : 1                  
HORIZ_INTERVAL     : 4.0000e-010        
HORIZ_OFFSET       : -2.00000000e-007   
PIXEL_OFFSET       : -2.00000000e-007   
VERTUNIT           : Unit Name = V
HORUNIT            : Unit Name = S
HORIZ_UNCERTAINTY  : 1.0000e-012        
TRIGGER_TIME       : Date = APR 17, 2024, Time = 19:23:40.493222543
ACQ_DURATION       : 9.9989e+000        
RECORD_TYPE        : single_sweep       
PROCESSING_DONE    : no_processing      
RESERVED5          : 0                  
RIS_SWEEPS         : 1                  
TIMEBASE           : 200_ns/div         
VERT_COUPLING      : DC_50_Ohms         
PROBE_ATT          : 1.0000e+000        
FIXED_VERT_GAIN    : 5_mV/div           
BANDWIDTH_LIMIT    : off                
VERTICAL_VERNIER   : 1.1600e+000        
ACQ_VERT_OFFSET    : 0.0000e+000        
WAVE_SOURCE        : UNKNOWN            
"
0.000118
0.000134
0.000131
0.000115
0.000144
0.000170
0.000155
0.000163
0.000178
0.000178
0.000160
0.000134
0.000136
0.000118
0.000136
0.000129
0.000142
0.000160
0.000160
0.000144
0.000149
0.000155
0.000126
0.000129
0.000105
0.000134
0.000123
0.000100
0.000123
0.000134
0.000129
0.000126
0.000147
0.000118
0.000149
0.000176
0.000165
0.000165
0.000194
0.000165
0.000136
0.000126
0.000152
0.000115
0.000105
0.000139
0.000136
0.000126
0.000184
0.000160
0.000113
0.000149
0.000165
0.000147
0.000144
0.000147
0.000126
0.000134
0.000149
0.000142
0.000142
0.000121
0.000142
0.000118
0.000118
0.000134
0.000110
0.000089
0.000123
0.000123
0.000115
0.000139
0.000139
0.000115
0.000144
0.000123
0.000144
0.000129
0.000129
0.000108
0.000118
0.000139
0.000152
0.000136
0.000121
0.000136
0.000134
0.000123
0.000147
0.000147
0.000155
0.000160
0.000181
0.000176
0.000160
0.000176
0.000165
0.000149
0.000160
0.000157
0.000157
0.000160
0.000134
0.000134
0.000121
0.000168
0.000149
0.000126
0.000170
0.000152
0.000121
0.000105
0.000100
0.000102
0.000108
0.000118
0.000126
0.000123
0.000157
0.000152
0.000155
0.000160
0.000191
0.000157
0.000160
0.000176
0.000163
0.000152
0.000168
0.000163
0.000168
0.000129
0.000170
0.000139
0.000134
0.000142
0.000149
0.000126
0.000142
0.000121
0.000100
0.000136
0.000147
0.000105
0.000139
0.000129
0.000178
0.000168
0.000168
0.000199
0.000181
0.000178
0.000207
0.000170
0.000181
0.000186
0.000163
0.000149
0.000139
0.000134
0.000147
0.000118
0.000118
0.000110
0.000129
0.000163
0.000142
0.000123
0.000149
0.000155
0.000155
0.000160
0.000186
0.000186
0.000163
0.000155
0.000186
0.000181
0.000178
0.000163
0.000149
0.000155
0.000168
0.000134
0.000139
0.000142
0.000147
0.000123
0.000123
0.000144
0.000139
0.000123
0.000152
0.000168
0.000155
0.000157
0.000147
0.000123
0.000129
0.000152
0.000157
0.000152
0.000157
0.000136
0.000149
0.000160
0.000155
0.000115
0.000129
0.000136
0.000108
0.000118
0.000134
0.000144
0.000129
0.000152
0.000152
0.000157
0.000181
0.000170
0.000176
0.000197
0.000186
0.000157
0.000163
0.000178
0.000165
0.000147
0.000136
0.000163
0.000152
0.000108
0.000131
0.000129
0.000102
0.000126
0.000142
0.000134
0.000136
0.000142
0.000118
0.000089
0.000136
0.000089
0.000081
0.000123
0.000123
0.000113
0.000123
0.000126
0.000163
0.000126
0.000136
0.000152
0.000126
0.000129
0.000134
0.000108
0.000118
0.000131
0.000139
0.000121
0.000155
0.000152
0.000121
0.000136
0.000163
0.000118
0.000160
0.000176
0.000178
0.000184
0.000186
0.000210
0.000144
0.000155
0.000165
0.000165
0.000144
0.000129
0.000131
0.000113
0.000129
0.000136
0.000121
0.000131
0.000115
0.000144
0.000152
0.000142
0.000134
0.000097
0.000165
0.000189
0.000155
0.000144
0.000170
0.000129
0.000139
0.000149
0.000134
0.000136
0.000139
0.000108
0.000121
0.000113
0.000097
0.000089
0.000110
0.000115
0.000126
0.000142
0.000149
0.000173
0.000160
0.000168
0.000181
0.000168
0.000178
0.000184
0.000170
0.000142
0.000157
0.000134
0.000118
0.000110
0.000113
0.000115
0.000102
0.000118
0.000134
0.000108
0.000165
0.000155
0.000160
0.000173
0.000163
0.000155
0.000144
0.000176
0.000129
0.000123
0.000147
0.000147
0.000113
0.000134
0.000155
0.000136
0.000136
0.000160
0.000160
0.000139
0.000136
0.000149
0.000152
0.000123
0.000129
0.000134
0.000115
0.000144
0.000139
0.000142
0.000157
0.000152
0.000142
0.000165
0.000155
0.000136
0.000155
0.000147
0.000170
0.000126
0.000136
0.000155
0.000134
0.000105
0.000144
0.000110
0.000097
0.000121
0.000126
0.000126
0.000152
0.000160
0.000160
0.000178
0.000176
0.000152
0.000144
0.000152
0.000136
0.000118
0.000102
0.000094
0.000063
0.000055
0.000155
0.000102
0.000131
0.000163
0.000147
0.000165
0.000160
0.000142
0.000170
0.000202
0.000212
0.000197
0.000207
0.000163
0.000168
0.000121
0.000110
0.000147
0.000121
0.000129
0.000147
0.000121
0.000110
0.000139
0.000121
0.000134
0.000144
0.000113
0.000118
0.000139
0.000110
0.000105
0.000126
0.000123
0.000170
0.000147
0.000134
0.000189
0.000202
0.000181
0.000223
0.000181
0.000131
0.000094
0.000071
0.000073
0.000094
0.000068
0.000100
0.000121
0.000147
0.000147
0.000176
0.000202
0.000176
0.000108
0.000094
0.000097
0.000084
0.000118
0.000163
0.000136
0.000142
0.000163
0.000157
0.000186
0.000215
0.000231
0.000247
0.000226
0.000189
0.000123
0.000081
0.000079
0.000097
0.000084
0.000131
0.000147
0.000121
0.000121
0.000157
0.000142
0.000134
0.000115
0.000134
0.000113
0.000142
0.000147
0.000170
0.000212
0.000170
0.000147
0.000194
0.000170
0.000173
0.000163
0.000147
0.000121
0.000100
0.000039
0.000076
0.000084
0.000052
0.000092
0.000102
0.000097
0.000097
0.000076
0.000113
0.000170
0.000223
0.000307
0.000359
0.000373
0.000352
0.000257
0.000231
0.000184
0.000076
0.000016
-0.000026
-0.000045
-0.000113
-0.000081
-0.000037
0.000039
0.000115
0.000134
0.000194
0.000262
0.000254
0.000268
0.000239
0.000207
0.000160
0.000100
0.000063
0.000052
0.000081
0.000063
0.000126
0.000110
0.000092
0.000139
0.000131
0.000163
0.000231
0.000239
0.000273
0.000268
0.000244
0.000249
0.000197
0.000144
0.000152
0.000102
0.000047
0.000034
0.000013
0.000013
0.000066
0.000031
-0.000087
-0.000234
-0.000538
-0.001029
-0.001721
-0.002582
-0.003634
-0.004938
-0.006491
-0.008202
-0.010007
-0.011634
-0.013211
-0.014714
-0.016039
-0.016979
-0.017572
-0.017889
-0.018125
-0.018372
-0.018587
-0.018566
-0.018364
-0.017994
-0.017477
-0.016960
-0.016622
-0.016556
-0.016365
-0.015963
-0.015575
-0.015250
-0.014832
-0.014420
-0.014187
-0.013775
-0.013219
-0.012626
-0.011986
-0.011458
-0.011175
-0.011044
-0.010891
-0.010632
-0.010527
-0.010403
-0.010117
-0.009989
-0.009950
-0.009829
-0.009664
-0.009590
-0.009451
-0.009233
-0.009034
-0.008834
-0.008821
-0.008895
-0.008958
-0.009207
-0.009614
-0.009860
-0.009955
-0.009889
-0.009753
-0.009580
-0.009383
-0.009383
-0.009406
-0.009435
-0.009467
-0.009364
-0.009141
-0.008963
-0.008903
-0.008918
-0.008947
-0.008882
-0.008871
-0.008740
-0.008509
-0.008415
-0.008373
-0.008223
-0.007984
-0.007819
-0.007604
-0.007402
-0.007276
-0.007231
-0.007132
-0.007045
-0.006958
-0.006785
-0.006680
-0.006654
-0.006675
-0.006617
-0.006337
-0.006197
-0.006247
-0.006182
-0.006184
-0.006108
-0.006072
-0.006121
-0.006145
-0.006116
-0.006058
-0.005930
-0.005843
-0.005841
-0.005804
-0.005738
-0.005772
-0.005746
-0.005670
-0.005610
-0.005552
-0.005652
-0.005639
-0.005544
-0.005465
-0.005400
-0.005363
-0.005311
-0.005242
-0.005145
-0.005185
-0.005158
-0.005219
-0.005308
-0.005374
-0.005360
-0.005329
-0.005290
-0.005224
-0.005221
-0.005269
-0.005321
-0.005347
-0.005211
-0.005059
-0.004907
-0.004788
-0.004733
-0.004644
-0.004542
-0.004542
-0.004523
-0.004508
-0.004542
-0.004555
-0.004508
-0.004434
-0.004282
-0.004146
-0.004056
-0.003980
-0.003957
-0.003965
-0.004070
-0.004104
-0.004146
-0.004156
-0.004243
-0.004266
-0.004287
-0.004303
-0.004264
-0.004251
-0.004230
-0.004169
-0.004146
-0.004096
-0.003967
-0.003857
-0.003794
-0.003707
-0.003684
-0.003652
-0.003582
-0.003542
-0.003453
-0.003477
-0.003558
-0.003629
-0.003744
-0.003786
-0.003757
-0.003692
-0.003663
-0.003589
-0.003498
-0.003411
-0.003306
-0.003275
-0.003290
-0.003322
-0.003393
-0.003503
-0.003532
-0.003508
-0.003505
-0.003463
-0.003351
-0.003183
-0.003044
-0.003041
-0.003004
-0.003020
-0.003091
-0.003177
-0.003298
-0.003290
-0.003340
-0.003380
-0.003421
-0.003406
-0.003385
-0.003458
-0.003500
-0.003437
-0.003303
-0.003222
-0.003112
-0.003010
-0.003020
-0.003096
-0.003138
-0.003107
-0.003012
-0.002965
-0.002941
-0.002905
-0.002996
-0.003015
-0.003067
-0.003088
-0.003083
-0.003023
-0.002954
-0.002808
-0.002674
-0.002585
-0.002532
-0.002556
-0.002687
-0.002721
-0.002747
-0.002752
-0.002718
-0.002674
-0.002600
-0.002522
-0.002477
-0.002493
-0.002564
-0.002582
-0.002595
-0.002647
-0.002676
-0.002608
-0.002585
-0.002548
-0.002498
-0.002490
-0.002466
-0.002498
-0.002524
-0.002503
-0.002461
-0.002369
-0.002333
-0.002222
-0.002215
-0.002254
-0.002320
-0.002474
-0.002579
-0.002687
-0.002802
-0.002957
-0.002983
-0.002996
-0.002954
-0.002954
-0.002873
-0.002905
-0.002926
-0.002839
-0.002697
-0.002461
-0.002230
-0.001986
-0.001831
-0.001748
-0.001732
-0.001661
-0.001687
-0.001824
-0.002039
-0.002246
-0.002422
-0.002564
-0.002674
-0.002640
-0.002553
-0.002524
-0.002498
-0.002472
-0.002411
-0.002367
-0.002445
-0.002461
-0.002464
-0.002477
-0.002506
-0.002490
-0.002451
-0.002369
-0.002288
-0.002157
-0.002094
-0.002154
-0.002125
-0.002138
-0.002288
-0.002369
-0.002445
-0.002474
-0.002514
-0.002485
-0.002445
-0.002445
-0.002456
-0.002367
-0.002359
-0.002359
-0.002380
-0.002346
-0.002338
-0.002293
-0.002183
-0.002044
-0.001915
-0.001813
-0.001761
-0.001795
-0.001876
-0.001942
-0.001999
-0.002099
-0.002175
-0.002144
-0.002152
-0.002217
-0.002215
-0.002196
-0.002152
-0.002159
-0.002133
-0.002070
-0.001963
-0.001939
-0.001929
-0.001915
-0.001913
-0.001984
-0.002036
-0.001984
-0.001915
-0.001858
-0.001923
-0.001986
-0.002036
-0.002044
-0.002020
-0.001999
-0.001952
-0.001929
-0.001965
-0.001915
-0.001873
-0.001908
-0.001887
-0.001834
-0.001816
-0.001821
-0.001915
-0.001915
-0.001986
-0.002062
-0.002036
-0.001992
-0.001999
-0.001978
-0.001936
-0.001923
-0.001871
-0.001858
-0.001884
-0.001894
-0.001894
-0.001881
-0.001837
-0.001881
-0.001902
-0.001913
-0.001918
-0.001884
-0.001813
-0.001708
-0.001632
-0.001582
-0.001619
-0.001622
-0.001692
-0.001818
-0.001900
-0.001978
-0.002075
-0.002086
-0.002086
-0.002010
-0.001936
-0.001855
-0.001740
-0.001766
-0.001782
-0.001758
-0.001677
-0.001740
-0.001784
-0.001761
-0.001724
-0.001692
-0.001656
-0.001598
-0.001603
-0.001616
-0.001666
-0.001716
-0.001748
-0.001779
-0.001829
-0.001855
-0.001779
-0.001771
-0.001779
-0.001748
-0.001703
-0.001664
-0.001587
-0.001477
-0.001417
-0.001467
-0.001464
-0.001540
-0.001608
-0.001685
-0.001724
-0.001698
-0.001629
-0.001640
-0.001616
-0.001640
-0.001640
-0.001632
-0.001643
-0.001632
-0.001593
-0.001548
-0.001498
-0.001422
-0.001372
-0.001296
-0.001301
-0.001267
-0.001278
-0.001259
-0.001270
-0.001299
-0.001354
-0.001409
-0.001443
-0.001543
-0.001666
-0.001721
-0.001763
-0.001763
-0.001748
-0.001782
-0.001779
-0.001761
-0.001740
-0.001721
-0.001661
-0.001603
-0.001553
-0.001451
-0.001409
-0.001351
-0.001364
-0.001359
-0.001399
-0.001420
-0.001406
-0.001401
-0.001385
-0.001391
-0.001441
-0.001553
-0.001590
-0.001624
-0.001624
-0.001530
-0.001425
-0.001370
-0.001315
-0.001265
-0.001275
-0.001233
-0.001212
-0.001249
-0.001246
-0.001249
-0.001262
-0.001299
-0.001341
-0.001309
-0.001278
-0.001262
-0.001267
-0.001299
-0.001372
-0.001433
-0.001454
-0.001483
-0.001480
-0.001383
-0.001362
-0.001349
-0.001288
-0.001291
-0.001296
-0.001336
-0.001351
-0.001354
-0.001362
-0.001301
-0.001270
-0.001288
-0.001283
-0.001330
-0.001391
-0.001425
-0.001459
-0.001503
-0.001527
-0.001488
-0.001462
-0.001399
-0.001333
-0.001265
-0.001204
-0.001155
-0.001139
-0.001134
-0.001102
-0.001031
-0.000981
-0.001013
-0.001029
-0.000968
-0.001005
-0.001023
-0.001050
-0.001110
-0.001199
-0.001273
-0.001317
-0.001312
-0.001307
-0.001320
-0.001294
-0.001259
-0.001249
-0.001176
-0.001176
-0.001136
-0.001073
-0.001086
-0.001141
-0.001178
-0.001204
-0.001265
-0.001291
-0.001312
-0.001296
-0.001301
-0.001354
-0.001325
-0.001304
-0.001312
-0.001328
-0.001338
-0.001288
-0.001162
-0.001068
-0.001039
-0.000966
-0.000932
-0.000926
-0.000908
-0.000939
-0.001031
-0.001092
-0.001173
-0.001215
-0.001259
-0.001299
-0.001265
-0.001244
-0.001225
-0.001197
-0.001105
-0.001076
-0.001076
-0.001089
-0.001084
-0.001089
-0.001081
-0.001107
-0.001076
-0.001073
-0.001063
-0.001005
-0.000953
-0.000895
-0.000824
-0.000845
-0.000837
-0.000890
-0.000945
-0.001013
-0.001018
-0.001039
-0.001044
-0.001097
-0.001155
-0.001157
-0.001210
-0.001223
-0.001225
-0.001267
-0.001246
-0.001199
-0.001134
-0.001097
-0.001023
-0.001021
-0.000979
-0.000997
-0.000963
-0.000911
-0.000871
-0.000900
-0.000973
-0.001050
-0.001105
-0.001136
-0.001134
-0.001149
-0.001147
-0.001157
-0.001162
-0.001168
-0.001118
-0.001126
-0.001065
-0.001036
-0.000987
-0.000955
-0.000960
-0.000908
-0.000848
-0.000808
-0.000766
-0.000790
-0.000827
-0.000887
-0.000955
-0.000981
-0.001013
-0.001018
-0.001002
-0.001050
-0.001078
-0.001063
-0.001063
-0.001002
-0.000950
-0.000913
-0.000937
-0.000958
-0.000932
-0.000921
-0.000882
-0.000879
-0.000869
-0.000840
-0.000790
-0.000756
-0.000753
-0.000824
-0.000855
-0.000945
-0.000994
-0.001005
-0.000987
-0.000966
-0.000958
-0.000926
-0.000913
-0.000926
-0.000911
-0.000947
-0.000908
-0.000913
-0.000874
-0.000866
-0.000798
-0.000800
-0.000756
-0.000743
-0.000777
-0.000816
-0.000782
-0.000816
-0.000845
-0.000895
-0.000921
-0.001005
-0.001023
-0.001042
-0.001026
-0.000987
-0.000947
-0.000924
-0.000892
-0.000821
-0.000750
-0.000753
-0.000753
-0.000724
-0.000795
-0.000863
-0.000795
-0.000766
-0.000748
-0.000827
-0.000845
-0.000837
-0.000908
-0.000955
-0.000897
-0.000884
-0.000869
-0.000855
-0.000858
-0.000861
-0.000863
-0.000858
-0.000821
-0.000787
-0.000795
-0.000840
-0.000848
-0.000897
-0.000842
-0.000779
-0.000716
-0.000672
-0.000659
-0.000656
-0.000735
-0.000840
-0.000887
-0.000953
-0.001010
-0.001057
-0.001089
-0.001092
-0.001113
-0.001078
-0.000989
-0.000911
-0.000837
-0.000806
-0.000771
-0.000716
-0.000682
-0.000706
-0.000706
-0.000748
-0.000743
-0.000769
-0.000858
-0.000871
-0.000942
-0.001071
-0.001081
-0.001034
-0.001010
-0.000979
-0.000945
-0.000834
-0.000748
-0.000732
-0.000737
-0.000706
-0.000708
-0.000701
-0.000664
-0.000698
-0.000701
-0.000722
-0.000756
-0.000813
-0.000785
-0.000748
-0.000722
-0.000727
-0.000753
-0.000758
-0.000769
-0.000816
-0.000779
-0.000821
-0.000866
-0.000876
-0.000861
-0.000811
-0.000808
-0.000808
-0.000732
-0.000698
-0.000685
-0.000685
-0.000638
-0.000653
-0.000664
-0.000706
-0.000758
-0.000758
-0.000740
-0.000756
-0.000745
-0.000737
-0.000711
-0.000771
-0.000743
-0.000703
-0.000656
-0.000661
-0.000677
-0.000651
-0.000695
-0.000680
-0.000664
-0.000674
-0.000695
-0.000743
-0.000758
-0.000711
-0.000677
-0.000682
-0.000617
-0.000596
-0.000659
-0.000740
-0.000764
-0.000795
-0.000753
-0.000777
-0.000782
-0.000832
-0.000858
-0.000895
-0.000848
-0.000845
-0.000800
-0.000737
-0.000708
-0.000714
-0.000706
-0.000677
-0.000656
-0.000703
-0.000703
-0.000732
-0.000703
-0.000680
-0.000672
-0.000659
-0.000682
-0.000729
-0.000800
-0.000855
-0.000858
-0.000879
-0.000800
-0.000777
-0.000732
-0.000695
-0.000703
-0.000701
-0.000669
-0.000632
-0.000619
-0.000588
-0.000622
-0.000674
-0.000632
-0.000640
-0.000580
-0.000556
-0.000535
-0.000543
-0.000559
-0.000611
-0.000635
-0.000685
-0.000766
-0.000774
-0.000803
-0.000855
-0.000824
-0.000803
-0.000798
-0.000758
-0.000719
-0.000680
-0.000661
-0.000695
-0.000690
-0.000687
-0.000680
-0.000627
-0.000598
-0.000585
-0.000569
-0.000564
-0.000614
-0.000656
-0.000667
-0.000724
-0.000719
-0.000737
-0.000737
-0.000745
-0.000764
-0.000735
-0.000706
-0.000701
-0.000687
-0.000677
-0.000682
-0.000672
-0.000646
-0.000677
-0.000646
-0.000638
-0.000638
-0.000619
-0.000598
-0.000619
-0.000606
-0.000577
-0.000527
-0.000514
-0.000509
-0.000533
-0.000541
-0.000580
-0.000585
-0.000569
-0.000617
-0.000667
-0.000682
-0.000706
-0.000695
-0.000701
-0.000685
-0.000687
-0.000690
-0.000753
-0.000753
-0.000693
-0.000695
-0.000588
-0.000499
-0.000441
-0.000407
-0.000441
-0.000462
-0.000496
-0.000496
-0.000496
-0.000496
-0.000525
-0.000569
-0.000611
-0.000622
-0.000664
-0.000632
-0.000664
-0.000580
-0.000543
-0.000535
-0.000522
-0.000506
-0.000556
-0.000590
-0.000609
-0.000590
-0.000554
-0.000520
-0.000564
-0.000562
-0.000585
-0.000625
-0.000646
-0.000685
-0.000719
-0.000729
-0.000743
-0.000740
-0.000732
-0.000669
-0.000611
-0.000606
-0.000604
-0.000625
-0.000643
-0.000593
-0.000580
-0.000572
-0.000525
-0.000499
-0.000512
-0.000527
-0.000538
-0.000598
-0.000646
-0.000635
-0.000677
-0.000672
-0.000632
-0.000659
-0.000687
-0.000698
-0.000701
-0.000690
-0.000708
-0.000638
-0.000593
-0.000617
-0.000601
-0.000585
-0.000651
-0.000619
-0.000648
-0.000653
-0.000601
-0.000575
-0.000590
-0.000535
-0.000527
-0.000517
-0.000506
-0.000491
-0.000488
-0.000493
-0.000564
-0.000590
-0.000596
-0.000638
-0.000619
-0.000580
-0.000575
-0.000530
-0.000496
-0.000480
-0.000475
-0.000449
-0.000478
-0.000504
-0.000488
-0.000493
-0.000517
-0.000483
-0.000496
-0.000554
-0.000598
-0.000593
-0.000569
-0.000556
-0.000506
-0.000485
-0.000509
-0.000520
-0.000525
-0.000522
-0.000475
-0.000415
-0.000446
-0.000417
-0.000388
-0.000404
-0.000386
-0.000425
-0.000457
-0.000512
-0.000546
-0.000527
-0.000530
-0.000522
-0.000517
-0.000488
-0.000514
-0.000499
-0.000483
-0.000420
-0.000388
-0.000373
-0.000396
-0.000402
-0.000443
-0.000467
-0.000527
-0.000525
-0.000522
-0.000496
-0.000527
-0.000483
-0.000509
-0.000556
-0.000564
-0.000533
-0.000562
-0.000585
-0.000601
-0.000601
-0.000619
-0.000611
-0.000583
-0.000559
-0.000512
-0.000514
-0.000512
-0.000514
-0.000517
-0.000512
-0.000535
-0.000483
-0.000480
-0.000580
-0.000606
-0.000548
-0.000572
-0.000583
-0.000543
-0.000472
-0.000443
-0.000446
-0.000407
-0.000381
-0.000360
-0.000357
-0.000407
-0.000412
-0.000454
-0.000462
-0.000493
-0.000514
-0.000522
-0.000556
-0.000585
-0.000564
-0.000488
-0.000478
-0.000485
-0.000483
-0.000527
-0.000520
-0.000525
-0.000480
-0.000483
-0.000472
-0.000478
