Start time = 18:33:16.433934
End time = 18:33:26.366981
laser_energy = 7.680
channel_1_dial = 850
channel_2_dial = 850
channel_3_dial = 850
channel_4_dial = 850
NG-1-LII = 0
NG-3-15399 = 0
NG-4-LII = 0
NG-4-15399 = 0
NG-5-LII = 0
NG-5-15399 = 0
NG-9-LII = 0
NG-9-15399 = 0
NG-10-01 = 0
NG-11-15399 = 0
NG-12-15399 = 0
NG-4A-2001 = 0
NG-4B-2001 = 0
NG-5A-2001 = 0
NG-3-2001 = 0
NG-5B-2001 = 0
NG-1-2001 = 0
NG-9-2001 = 0
NG-10-2001 = 0
NG-11-2001 = 0
NG-12-2001 = 0
AND-200SN09 = 0
AND-100SN09 = 0
AND-050SN09 = 0
AND-030SN09 = 0
AND-015SN05 = 0
PMT#1Voltage = 0
PMT#2Voltage = 0
t0(sec) = 0.000000E+0
dt(sec) = 4.000000E-10
F1:INSP "
DESCRIPTOR_NAME    : WAVEDESC           
TEMPLATE_NAME      : LECROY_2_3         
COMM_TYPE          : word               
COMM_ORDER         : HIFIRST            
WAVE_DESCRIPTOR    : 346                
USER_TEXT          : 0                  
RES_DESC1          : 0                  
TRIGTIME_ARRAY     : 0                  
RIS_TIME_ARRAY     : 0                  
RES_ARRAY1         : 0                  
WAVE_ARRAY_1       : 10002              
WAVE_ARRAY_2       : 0                  
RES_ARRAY2         : 0                  
RES_ARRAY3         : 0                  
INSTRUMENT_NAME    : LECROYHDO6104      
INSTRUMENT_NUMBER  : 6308               
TRACE_LABEL        :                    
RESERVED1          : 5001               
RESERVED2          : 0                  
WAVE_ARRAY_COUNT   : 5001               
PNTS_PER_SCREEN    : 5000               
FIRST_VALID_PNT    : 0                  
LAST_VALID_PNT     : 5000               
FIRST_POINT        : 0                  
SPARSING_FACTOR    : 1                  
SEGMENT_INDEX      : 0                  
SUBARRAY_COUNT     : 1                  
SWEEPS_PER_ACQ     : 200                
POINTS_PER_PAIR    : 0                  
PAIR_OFFSET        : 0                  
VERTICAL_GAIN      : 2.6238e-006        
VERTICAL_OFFSET    : 6.5501e-002        
MAX_VALUE          : 3.0816e+004        
MIN_VALUE          : 1.3388e+004        
NOMINAL_BITS       : 16                 
NOM_SUBARRAY_COUNT : 1                  
HORIZ_INTERVAL     : 4.0000e-010        
HORIZ_OFFSET       : -2.00000000e-007   
PIXEL_OFFSET       : -2.00000000e-007   
VERTUNIT           : Unit Name = V
HORUNIT            : Unit Name = S
HORIZ_UNCERTAINTY  : 1.0000e-012        
TRIGGER_TIME       : Date = APR 17, 2024, Time = 19:33:12.105208305
ACQ_DURATION       : 1.0199e+001        
RECORD_TYPE        : single_sweep       
PROCESSING_DONE    : no_processing      
RESERVED5          : 0                  
RIS_SWEEPS         : 1                  
TIMEBASE           : 200_ns/div         
VERT_COUPLING      : DC_50_Ohms         
PROBE_ATT          : 1.0000e+000        
FIXED_VERT_GAIN    : 5_mV/div           
BANDWIDTH_LIMIT    : off                
VERTICAL_VERNIER   : 1.1600e+000        
ACQ_VERT_OFFSET    : 0.0000e+000        
WAVE_SOURCE        : UNKNOWN            
"
0.000189
0.000215
0.000178
0.000176
0.000191
0.000160
0.000202
0.000202
0.000186
0.000228
0.000197
0.000184
0.000223
0.000233
0.000223
0.000207
0.000202
0.000207
0.000197
0.000178
0.000178
0.000189
0.000181
0.000168
0.000194
0.000197
0.000184
0.000202
0.000186
0.000218
0.000220
0.000194
0.000223
0.000199
0.000191
0.000218
0.000210
0.000223
0.000212
0.000194
0.000199
0.000212
0.000202
0.000178
0.000220
0.000202
0.000165
0.000173
0.000186
0.000184
0.000189
0.000181
0.000202
0.000228
0.000197
0.000212
0.000205
0.000176
0.000202
0.000205
0.000205
0.000212
0.000207
0.000191
0.000228
0.000189
0.000197
0.000191
0.000189
0.000184
0.000184
0.000178
0.000226
0.000186
0.000191
0.000207
0.000191
0.000176
0.000191
0.000220
0.000218
0.000236
0.000181
0.000184
0.000197
0.000189
0.000191
0.000220
0.000170
0.000181
0.000186
0.000205
0.000218
0.000207
0.000210
0.000189
0.000197
0.000186
0.000189
0.000184
0.000189
0.000194
0.000186
0.000223
0.000220
0.000173
0.000205
0.000199
0.000165
0.000129
0.000131
0.000147
0.000163
0.000184
0.000176
0.000202
0.000186
0.000191
0.000218
0.000205
0.000210
0.000228
0.000202
0.000189
0.000210
0.000207
0.000202
0.000191
0.000191
0.000184
0.000189
0.000160
0.000160
0.000144
0.000178
0.000189
0.000189
0.000178
0.000176
0.000197
0.000186
0.000220
0.000202
0.000184
0.000205
0.000184
0.000210
0.000181
0.000178
0.000184
0.000205
0.000184
0.000207
0.000199
0.000178
0.000186
0.000210
0.000189
0.000205
0.000199
0.000165
0.000199
0.000170
0.000160
0.000194
0.000184
0.000181
0.000212
0.000207
0.000194
0.000226
0.000181
0.000212
0.000207
0.000178
0.000191
0.000181
0.000157
0.000173
0.000163
0.000157
0.000191
0.000181
0.000184
0.000202
0.000189
0.000181
0.000212
0.000210
0.000218
0.000212
0.000205
0.000218
0.000210
0.000194
0.000207
0.000218
0.000205
0.000212
0.000202
0.000184
0.000181
0.000202
0.000165
0.000191
0.000160
0.000184
0.000226
0.000173
0.000184
0.000197
0.000186
0.000189
0.000178
0.000176
0.000176
0.000189
0.000181
0.000207
0.000207
0.000207
0.000223
0.000197
0.000205
0.000218
0.000218
0.000181
0.000210
0.000199
0.000197
0.000202
0.000197
0.000173
0.000165
0.000197
0.000194
0.000199
0.000155
0.000163
0.000144
0.000173
0.000184
0.000186
0.000178
0.000215
0.000197
0.000220
0.000210
0.000205
0.000186
0.000170
0.000157
0.000186
0.000178
0.000181
0.000178
0.000181
0.000176
0.000210
0.000181
0.000152
0.000160
0.000194
0.000152
0.000160
0.000194
0.000178
0.000194
0.000202
0.000199
0.000202
0.000205
0.000210
0.000202
0.000194
0.000178
0.000176
0.000157
0.000170
0.000168
0.000160
0.000178
0.000168
0.000176
0.000194
0.000191
0.000184
0.000205
0.000199
0.000176
0.000202
0.000202
0.000199
0.000186
0.000186
0.000218
0.000202
0.000199
0.000184
0.000197
0.000186
0.000184
0.000173
0.000184
0.000168
0.000168
0.000168
0.000194
0.000199
0.000197
0.000189
0.000173
0.000197
0.000202
0.000163
0.000155
0.000184
0.000168
0.000184
0.000205
0.000191
0.000212
0.000189
0.000191
0.000186
0.000226
0.000181
0.000168
0.000186
0.000197
0.000176
0.000194
0.000181
0.000191
0.000197
0.000189
0.000212
0.000223
0.000184
0.000191
0.000186
0.000207
0.000194
0.000176
0.000202
0.000189
0.000191
0.000197
0.000184
0.000165
0.000173
0.000170
0.000184
0.000176
0.000170
0.000197
0.000191
0.000207
0.000220
0.000210
0.000210
0.000212
0.000223
0.000207
0.000215
0.000212
0.000205
0.000189
0.000220
0.000199
0.000212
0.000207
0.000184
0.000218
0.000199
0.000189
0.000194
0.000202
0.000191
0.000202
0.000184
0.000205
0.000218
0.000202
0.000207
0.000212
0.000176
0.000176
0.000212
0.000186
0.000199
0.000199
0.000189
0.000202
0.000186
0.000170
0.000202
0.000199
0.000176
0.000168
0.000189
0.000212
0.000210
0.000199
0.000189
0.000197
0.000194
0.000223
0.000254
0.000239
0.000244
0.000178
0.000202
0.000202
0.000184
0.000194
0.000226
0.000207
0.000199
0.000152
0.000194
0.000170
0.000152
0.000142
0.000170
0.000178
0.000173
0.000178
0.000212
0.000207
0.000207
0.000186
0.000207
0.000178
0.000165
0.000236
0.000268
0.000273
0.000233
0.000176
0.000155
0.000102
0.000129
0.000142
0.000152
0.000199
0.000189
0.000199
0.000231
0.000226
0.000181
0.000178
0.000181
0.000121
0.000149
0.000142
0.000184
0.000212
0.000207
0.000226
0.000212
0.000207
0.000273
0.000270
0.000325
0.000317
0.000286
0.000215
0.000176
0.000089
0.000047
0.000100
0.000115
0.000149
0.000155
0.000176
0.000165
0.000152
0.000147
0.000160
0.000163
0.000155
0.000202
0.000207
0.000220
0.000252
0.000254
0.000257
0.000260
0.000270
0.000270
0.000265
0.000241
0.000173
0.000113
0.000081
0.000073
0.000084
0.000076
0.000073
0.000073
0.000118
0.000147
0.000131
0.000155
0.000226
0.000281
0.000346
0.000435
0.000435
0.000425
0.000401
0.000304
0.000268
0.000212
0.000097
0.000052
0.000008
-0.000032
-0.000039
-0.000042
0.000026
0.000121
0.000142
0.000160
0.000194
0.000236
0.000254
0.000278
0.000244
0.000252
0.000223
0.000160
0.000152
0.000123
0.000134
0.000181
0.000231
0.000220
0.000181
0.000220
0.000205
0.000252
0.000291
0.000275
0.000310
0.000268
0.000257
0.000218
0.000184
0.000189
0.000176
0.000181
0.000131
0.000100
0.000094
0.000123
0.000100
-0.000018
-0.000213
-0.000596
-0.001378
-0.002611
-0.004518
-0.007113
-0.010406
-0.014405
-0.018734
-0.023055
-0.027274
-0.030874
-0.033459
-0.035217
-0.036513
-0.037520
-0.037914
-0.037982
-0.038092
-0.038124
-0.037948
-0.037631
-0.037171
-0.036405
-0.035537
-0.034658
-0.033795
-0.032892
-0.032039
-0.031040
-0.029733
-0.028460
-0.027151
-0.025852
-0.024564
-0.023444
-0.022478
-0.021528
-0.020618
-0.019839
-0.019185
-0.018553
-0.018086
-0.017569
-0.017078
-0.016585
-0.016037
-0.015504
-0.014916
-0.014365
-0.013862
-0.013620
-0.013434
-0.013363
-0.013492
-0.013539
-0.013618
-0.013686
-0.013788
-0.014048
-0.014281
-0.014507
-0.014651
-0.014570
-0.014455
-0.014384
-0.014281
-0.014066
-0.013940
-0.013972
-0.013833
-0.013534
-0.013311
-0.013127
-0.012875
-0.012610
-0.012434
-0.012266
-0.012043
-0.011765
-0.011466
-0.011125
-0.010844
-0.010566
-0.010338
-0.009986
-0.009535
-0.009183
-0.008842
-0.008559
-0.008380
-0.008241
-0.008003
-0.007777
-0.007551
-0.007250
-0.007055
-0.006906
-0.006751
-0.006704
-0.006596
-0.006468
-0.006321
-0.006229
-0.006187
-0.006140
-0.006106
-0.006103
-0.006119
-0.006135
-0.006200
-0.006268
-0.006289
-0.006271
-0.006200
-0.006119
-0.006051
-0.005995
-0.005967
-0.005911
-0.005788
-0.005709
-0.005675
-0.005625
-0.005528
-0.005429
-0.005355
-0.005216
-0.005043
-0.005019
-0.005048
-0.005025
-0.004912
-0.004807
-0.004702
-0.004505
-0.004329
-0.004185
-0.004125
-0.004222
-0.004335
-0.004321
-0.004282
-0.004198
-0.004035
-0.003836
-0.003613
-0.003442
-0.003348
-0.003269
-0.003201
-0.003141
-0.002949
-0.002800
-0.002745
-0.002637
-0.002587
-0.002608
-0.002713
-0.002860
-0.003004
-0.003151
-0.003259
-0.003306
-0.003309
-0.003327
-0.003340
-0.003395
-0.003406
-0.003427
-0.003427
-0.003429
-0.003359
-0.003251
-0.003164
-0.003065
-0.003023
-0.002949
-0.002910
-0.002933
-0.002947
-0.002981
-0.002994
-0.002857
-0.002794
-0.002713
-0.002605
-0.002432
-0.002309
-0.002259
-0.002204
-0.002102
-0.001960
-0.001860
-0.001897
-0.001863
-0.001845
-0.001892
-0.001947
-0.002010
-0.002110
-0.002175
-0.002230
-0.002207
-0.002081
-0.001952
-0.001829
-0.001774
-0.001761
-0.001737
-0.001729
-0.001737
-0.001729
-0.001750
-0.001845
-0.002039
-0.002194
-0.002278
-0.002330
-0.002361
-0.002312
-0.002257
-0.002183
-0.002062
-0.001879
-0.001692
-0.001527
-0.001422
-0.001446
-0.001464
-0.001580
-0.001671
-0.001719
-0.001711
-0.001695
-0.001685
-0.001679
-0.001595
-0.001553
-0.001535
-0.001483
-0.001459
-0.001469
-0.001427
-0.001357
-0.001299
-0.001291
-0.001220
-0.001275
-0.001291
-0.001291
-0.001301
-0.001294
-0.001278
-0.001233
-0.001275
-0.001273
-0.001280
-0.001278
-0.001301
-0.001330
-0.001294
-0.001333
-0.001375
-0.001409
-0.001414
-0.001448
-0.001467
-0.001488
-0.001522
-0.001488
-0.001477
-0.001425
-0.001354
-0.001270
-0.001197
-0.001160
-0.001113
-0.001081
-0.001099
-0.001097
-0.001084
-0.001057
-0.001055
-0.001052
-0.001029
-0.001000
-0.000994
-0.000953
-0.000840
-0.000769
-0.000693
-0.000572
-0.000546
-0.000533
-0.000522
-0.000546
-0.000619
-0.000659
-0.000674
-0.000777
-0.000876
-0.000934
-0.000958
-0.000973
-0.001005
-0.000984
-0.000971
-0.000987
-0.000934
-0.000903
-0.000968
-0.001010
-0.000992
-0.001005
-0.000945
-0.000924
-0.000842
-0.000834
-0.000879
-0.000879
-0.000903
-0.000929
-0.000932
-0.000884
-0.000824
-0.000816
-0.000753
-0.000748
-0.000727
-0.000769
-0.000795
-0.000840
-0.000876
-0.000911
-0.000882
-0.000887
-0.000863
-0.000850
-0.000869
-0.000821
-0.000758
-0.000701
-0.000585
-0.000554
-0.000541
-0.000546
-0.000562
-0.000583
-0.000661
-0.000669
-0.000695
-0.000690
-0.000706
-0.000745
-0.000792
-0.000871
-0.000858
-0.000853
-0.000866
-0.000863
-0.000803
-0.000764
-0.000722
-0.000701
-0.000698
-0.000651
-0.000661
-0.000656
-0.000651
-0.000648
-0.000667
-0.000632
-0.000653
-0.000701
-0.000716
-0.000664
-0.000646
-0.000585
-0.000541
-0.000480
-0.000438
-0.000407
-0.000422
-0.000464
-0.000464
-0.000514
-0.000527
-0.000567
-0.000575
-0.000564
-0.000598
-0.000593
-0.000556
-0.000541
-0.000514
-0.000501
-0.000517
-0.000491
-0.000472
-0.000462
-0.000433
-0.000438
-0.000457
-0.000467
-0.000501
-0.000530
-0.000554
-0.000562
-0.000604
-0.000617
-0.000630
-0.000627
-0.000580
-0.000567
-0.000530
-0.000457
-0.000470
-0.000480
-0.000483
-0.000499
-0.000475
-0.000438
-0.000467
-0.000501
-0.000548
-0.000564
-0.000548
-0.000541
-0.000488
-0.000451
-0.000422
-0.000417
-0.000373
-0.000325
-0.000310
-0.000286
-0.000283
-0.000336
-0.000357
-0.000394
-0.000373
-0.000354
-0.000349
-0.000323
-0.000346
-0.000396
-0.000433
-0.000451
-0.000449
-0.000470
-0.000443
-0.000470
-0.000472
-0.000472
-0.000462
-0.000443
-0.000454
-0.000488
-0.000422
-0.000472
-0.000464
-0.000459
-0.000478
-0.000514
-0.000551
-0.000588
-0.000556
-0.000504
-0.000441
-0.000370
-0.000365
-0.000341
-0.000344
-0.000402
-0.000399
-0.000354
-0.000331
-0.000304
-0.000260
-0.000244
-0.000197
-0.000202
-0.000210
-0.000173
-0.000197
-0.000281
-0.000323
-0.000341
-0.000396
-0.000409
-0.000433
-0.000417
-0.000394
-0.000386
-0.000402
-0.000365
-0.000362
-0.000362
-0.000323
-0.000315
-0.000291
-0.000310
-0.000299
-0.000278
-0.000304
-0.000344
-0.000333
-0.000354
-0.000388
-0.000365
-0.000341
-0.000399
-0.000399
-0.000386
-0.000399
-0.000370
-0.000370
-0.000339
-0.000304
-0.000270
-0.000228
-0.000186
-0.000210
-0.000189
-0.000194
-0.000231
-0.000215
-0.000210
-0.000281
-0.000268
-0.000278
-0.000360
-0.000349
-0.000352
-0.000346
-0.000325
-0.000262
-0.000252
-0.000226
-0.000218
-0.000194
-0.000231
-0.000255
-0.000262
-0.000231
-0.000215
-0.000244
-0.000234
-0.000244
-0.000260
-0.000218
-0.000234
-0.000255
-0.000247
-0.000310
-0.000265
-0.000252
-0.000278
-0.000283
-0.000312
-0.000325
-0.000331
-0.000312
-0.000257
-0.000276
-0.000260
-0.000249
-0.000239
-0.000255
-0.000210
-0.000202
-0.000207
-0.000220
-0.000241
-0.000244
-0.000234
-0.000239
-0.000223
-0.000202
-0.000210
-0.000215
-0.000202
-0.000205
-0.000226
-0.000241
-0.000270
-0.000273
-0.000265
-0.000239
-0.000226
-0.000194
-0.000205
-0.000184
-0.000165
-0.000184
-0.000205
-0.000247
-0.000325
-0.000354
-0.000412
-0.000433
-0.000402
-0.000425
-0.000428
-0.000373
-0.000302
-0.000257
-0.000234
-0.000199
-0.000173
-0.000152
-0.000181
-0.000189
-0.000163
-0.000192
-0.000189
-0.000189
-0.000192
-0.000210
-0.000234
-0.000276
-0.000239
-0.000244
-0.000239
-0.000239
-0.000247
-0.000255
-0.000289
-0.000270
-0.000331
-0.000346
-0.000375
-0.000425
-0.000378
-0.000370
-0.000323
-0.000265
-0.000223
-0.000147
-0.000126
-0.000074
-0.000063
-0.000076
-0.000105
-0.000142
-0.000181
-0.000202
-0.000234
-0.000289
-0.000291
-0.000315
-0.000365
-0.000365
-0.000310
-0.000278
-0.000262
-0.000255
-0.000262
-0.000281
-0.000265
-0.000220
-0.000165
-0.000129
-0.000084
-0.000066
-0.000087
-0.000113
-0.000142
-0.000213
-0.000239
-0.000231
-0.000241
-0.000239
-0.000197
-0.000194
-0.000171
-0.000139
-0.000160
-0.000113
-0.000152
-0.000160
-0.000150
-0.000152
-0.000199
-0.000205
-0.000234
-0.000252
-0.000210
-0.000215
-0.000252
-0.000236
-0.000262
-0.000270
-0.000289
-0.000325
-0.000336
-0.000325
-0.000341
-0.000312
-0.000294
-0.000283
-0.000207
-0.000157
-0.000147
-0.000113
-0.000097
-0.000092
-0.000079
-0.000076
-0.000097
-0.000100
-0.000113
-0.000152
-0.000155
-0.000144
-0.000171
-0.000184
-0.000194
-0.000165
-0.000168
-0.000147
-0.000116
-0.000150
-0.000157
-0.000142
-0.000192
-0.000176
-0.000139
-0.000160
-0.000202
-0.000189
-0.000186
-0.000168
-0.000134
-0.000139
-0.000205
-0.000210
-0.000268
-0.000302
-0.000276
-0.000262
-0.000218
-0.000244
-0.000249
-0.000215
-0.000202
-0.000210
-0.000163
-0.000134
-0.000152
-0.000108
-0.000092
-0.000053
-0.000026
-0.000024
-0.000032
-0.000039
-0.000039
-0.000063
-0.000063
-0.000095
-0.000116
-0.000110
-0.000147
-0.000102
-0.000092
-0.000068
-0.000045
-0.000092
-0.000116
-0.000095
-0.000100
-0.000068
-0.000042
-0.000013
0.000024
0.000052
0.000026
-0.000005
-0.000037
-0.000105
-0.000131
-0.000168
-0.000215
-0.000268
-0.000244
-0.000273
-0.000302
-0.000252
-0.000262
-0.000207
-0.000152
-0.000110
-0.000097
-0.000097
-0.000110
-0.000092
-0.000089
-0.000129
-0.000134
-0.000108
-0.000097
-0.000058
-0.000063
-0.000060
-0.000042
-0.000068
-0.000076
-0.000047
-0.000063
-0.000068
-0.000087
-0.000113
-0.000087
-0.000079
-0.000076
-0.000026
-0.000021
-0.000042
-0.000029
-0.000063
-0.000060
-0.000071
-0.000089
-0.000095
-0.000102
-0.000108
-0.000095
-0.000129
-0.000142
-0.000126
-0.000150
-0.000116
-0.000068
-0.000066
-0.000071
-0.000060
-0.000047
-0.000058
-0.000021
-0.000003
0.000018
0.000016
-0.000005
0.000029
0.000029
-0.000037
-0.000021
-0.000021
-0.000055
-0.000066
-0.000105
-0.000126
-0.000081
-0.000108
-0.000076
-0.000081
-0.000108
-0.000105
-0.000126
-0.000116
-0.000134
-0.000113
-0.000142
-0.000113
-0.000100
-0.000081
-0.000037
-0.000000
-0.000042
-0.000050
-0.000032
-0.000045
-0.000060
-0.000089
-0.000102
-0.000087
-0.000139
-0.000150
-0.000129
-0.000129
-0.000155
-0.000155
-0.000163
-0.000129
-0.000131
-0.000168
-0.000118
-0.000121
-0.000105
-0.000071
-0.000037
-0.000013
-0.000016
-0.000000
-0.000029
-0.000013
-0.000058
-0.000068
-0.000047
-0.000079
-0.000084
-0.000079
-0.000100
-0.000092
-0.000081
-0.000092
-0.000037
-0.000011
-0.000011
0.000024
0.000016
0.000010
0.000010
-0.000003
-0.000011
-0.000000
-0.000039
-0.000087
-0.000071
-0.000134
-0.000118
-0.000084
-0.000068
-0.000102
-0.000108
-0.000089
-0.000074
-0.000071
-0.000074
-0.000055
-0.000074
-0.000087
-0.000076
-0.000079
-0.000071
-0.000068
-0.000076
-0.000089
-0.000076
-0.000102
-0.000102
-0.000092
-0.000134
-0.000147
-0.000136
-0.000129
-0.000147
-0.000110
-0.000126
-0.000108
-0.000092
-0.000113
-0.000076
-0.000076
-0.000081
-0.000047
-0.000029
-0.000000
0.000008
0.000037
0.000034
0.000055
0.000024
-0.000005
-0.000011
-0.000060
-0.000032
-0.000053
-0.000074
-0.000018
-0.000037
-0.000032
-0.000047
-0.000063
-0.000079
-0.000018
-0.000068
-0.000095
-0.000053
-0.000084
-0.000081
-0.000066
-0.000037
-0.000021
-0.000034
-0.000042
-0.000026
-0.000029
-0.000060
-0.000050
-0.000032
-0.000087
-0.000047
-0.000081
-0.000092
-0.000123
-0.000126
-0.000142
-0.000157
-0.000110
-0.000071
-0.000068
-0.000047
-0.000011
-0.000003
0.000008
0.000066
0.000052
0.000052
0.000068
0.000102
0.000063
0.000063
0.000042
-0.000024
-0.000018
-0.000037
-0.000042
-0.000024
-0.000016
-0.000034
-0.000055
-0.000029
-0.000011
-0.000024
-0.000029
0.000026
-0.000016
-0.000045
-0.000076
-0.000047
-0.000068
-0.000068
-0.000053
-0.000087
-0.000053
-0.000071
-0.000066
-0.000016
0.000005
-0.000003
-0.000005
-0.000008
0.000008
-0.000018
-0.000011
-0.000039
-0.000003
-0.000005
0.000010
0.000005
-0.000026
-0.000000
-0.000008
0.000018
0.000016
0.000037
-0.000016
-0.000042
-0.000081
-0.000102
-0.000100
-0.000118
-0.000092
-0.000058
-0.000026
-0.000005
0.000010
-0.000005
-0.000000
0.000016
0.000013
0.000031
0.000047
0.000052
0.000066
0.000089
0.000060
0.000026
0.000016
-0.000029
-0.000071
-0.000058
-0.000081
-0.000074
-0.000097
-0.000084
-0.000024
-0.000047
-0.000024
-0.000013
-0.000034
-0.000021
0.000018
0.000013
0.000047
0.000021
0.000024
-0.000000
0.000003
0.000008
0.000013
0.000010
0.000008
0.000013
0.000005
0.000018
0.000031
0.000037
0.000050
0.000029
0.000018
-0.000013
-0.000039
-0.000042
-0.000026
0.000031
0.000008
-0.000003
-0.000000
-0.000000
0.000008
0.000016
0.000003
-0.000013
-0.000039
-0.000045
-0.000037
-0.000039
-0.000021
0.000010
0.000010
-0.000005
0.000010
-0.000011
-0.000011
-0.000039
-0.000039
-0.000063
-0.000068
-0.000016
-0.000034
-0.000018
0.000042
0.000055
0.000026
0.000042
0.000076
0.000071
0.000060
0.000087
0.000052
0.000037
0.000026
0.000018
0.000042
0.000024
-0.000008
-0.000037
-0.000026
-0.000037
-0.000039
-0.000003
-0.000011
0.000013
0.000010
-0.000018
-0.000005
-0.000055
-0.000005
-0.000034
-0.000000
-0.000024
-0.000011
-0.000016
-0.000021
-0.000032
-0.000050
-0.000053
-0.000045
-0.000021
-0.000029
0.000010
0.000060
0.000052
0.000050
0.000055
0.000021
0.000031
0.000005
0.000029
0.000003
-0.000042
-0.000024
-0.000018
-0.000005
0.000021
0.000013
0.000016
0.000039
0.000031
0.000029
0.000066
0.000073
0.000073
0.000063
0.000105
0.000102
0.000115
0.000063
