Start time = 18:33:36.994555
End time = 18:33:46.968676
laser_energy = 7.680
channel_1_dial = 850
channel_2_dial = 850
channel_3_dial = 850
channel_4_dial = 850
NG-1-LII = 0
NG-3-15399 = 0
NG-4-LII = 0
NG-4-15399 = 0
NG-5-LII = 0
NG-5-15399 = 0
NG-9-LII = 0
NG-9-15399 = 0
NG-10-01 = 0
NG-11-15399 = 0
NG-12-15399 = 0
NG-4A-2001 = 0
NG-4B-2001 = 0
NG-5A-2001 = 0
NG-3-2001 = 0
NG-5B-2001 = 0
NG-1-2001 = 0
NG-9-2001 = 0
NG-10-2001 = 0
NG-11-2001 = 0
NG-12-2001 = 0
AND-200SN09 = 0
AND-100SN09 = 0
AND-050SN09 = 0
AND-030SN09 = 0
AND-015SN05 = 0
PMT#1Voltage = 0
PMT#2Voltage = 0
t0(sec) = 0.000000E+0
dt(sec) = 4.000000E-10
F1:INSP "
DESCRIPTOR_NAME    : WAVEDESC           
TEMPLATE_NAME      : LECROY_2_3         
COMM_TYPE          : word               
COMM_ORDER         : HIFIRST            
WAVE_DESCRIPTOR    : 346                
USER_TEXT          : 0                  
RES_DESC1          : 0                  
TRIGTIME_ARRAY     : 0                  
RIS_TIME_ARRAY     : 0                  
RES_ARRAY1         : 0                  
WAVE_ARRAY_1       : 10002              
WAVE_ARRAY_2       : 0                  
RES_ARRAY2         : 0                  
RES_ARRAY3         : 0                  
INSTRUMENT_NAME    : LECROYHDO6104      
INSTRUMENT_NUMBER  : 6308               
TRACE_LABEL        :                    
RESERVED1          : 5001               
RESERVED2          : 0                  
WAVE_ARRAY_COUNT   : 5001               
PNTS_PER_SCREEN    : 5000               
FIRST_VALID_PNT    : 0                  
LAST_VALID_PNT     : 5000               
FIRST_POINT        : 0                  
SPARSING_FACTOR    : 1                  
SEGMENT_INDEX      : 0                  
SUBARRAY_COUNT     : 1                  
SWEEPS_PER_ACQ     : 200                
POINTS_PER_PAIR    : 0                  
PAIR_OFFSET        : 0                  
VERTICAL_GAIN      : 2.6238e-006        
VERTICAL_OFFSET    : 6.5501e-002        
MAX_VALUE          : 3.0816e+004        
MIN_VALUE          : 1.3388e+004        
NOMINAL_BITS       : 16                 
NOM_SUBARRAY_COUNT : 1                  
HORIZ_INTERVAL     : 4.0000e-010        
HORIZ_OFFSET       : -2.00000000e-007   
PIXEL_OFFSET       : -2.00000000e-007   
VERTUNIT           : Unit Name = V
HORUNIT            : Unit Name = S
HORIZ_UNCERTAINTY  : 1.0000e-012        
TRIGGER_TIME       : Date = APR 17, 2024, Time = 19:33:32.853298883
ACQ_DURATION       : 1.0049e+001        
RECORD_TYPE        : single_sweep       
PROCESSING_DONE    : no_processing      
RESERVED5          : 0                  
RIS_SWEEPS         : 1                  
TIMEBASE           : 200_ns/div         
VERT_COUPLING      : DC_50_Ohms         
PROBE_ATT          : 1.0000e+000        
FIXED_VERT_GAIN    : 5_mV/div           
BANDWIDTH_LIMIT    : off                
VERTICAL_VERNIER   : 1.1600e+000        
ACQ_VERT_OFFSET    : 0.0000e+000        
WAVE_SOURCE        : UNKNOWN            
"
0.000144
0.000160
0.000136
0.000136
0.000142
0.000160
0.000134
0.000136
0.000149
0.000149
0.000144
0.000144
0.000113
0.000139
0.000100
0.000073
0.000060
0.000081
0.000045
0.000066
0.000094
0.000100
0.000115
0.000134
0.000139
0.000176
0.000136
0.000178
0.000173
0.000170
0.000152
0.000173
0.000155
0.000176
0.000149
0.000144
0.000144
0.000155
0.000134
0.000142
0.000115
0.000142
0.000118
0.000118
0.000118
0.000147
0.000126
0.000149
0.000144
0.000134
0.000149
0.000178
0.000186
0.000231
0.000184
0.000176
0.000186
0.000170
0.000118
0.000131
0.000113
0.000131
0.000108
0.000139
0.000100
0.000073
0.000071
0.000100
0.000081
0.000129
0.000097
0.000155
0.000121
0.000152
0.000142
0.000144
0.000142
0.000134
0.000157
0.000165
0.000139
0.000160
0.000118
0.000113
0.000094
0.000105
0.000087
0.000108
0.000089
0.000123
0.000100
0.000144
0.000131
0.000126
0.000149
0.000139
0.000152
0.000152
0.000126
0.000147
0.000115
0.000129
0.000139
0.000160
0.000147
0.000160
0.000147
0.000170
0.000113
0.000160
0.000181
0.000149
0.000121
0.000155
0.000055
0.000079
0.000076
0.000092
0.000092
0.000108
0.000097
0.000094
0.000118
0.000105
0.000100
0.000160
0.000131
0.000165
0.000149
0.000142
0.000155
0.000149
0.000144
0.000149
0.000134
0.000129
0.000121
0.000165
0.000142
0.000136
0.000105
0.000102
0.000094
0.000073
0.000081
0.000118
0.000097
0.000121
0.000139
0.000149
0.000131
0.000152
0.000147
0.000178
0.000136
0.000149
0.000115
0.000160
0.000139
0.000178
0.000155
0.000123
0.000131
0.000142
0.000115
0.000131
0.000102
0.000123
0.000108
0.000163
0.000118
0.000136
0.000147
0.000176
0.000149
0.000170
0.000184
0.000178
0.000170
0.000184
0.000147
0.000149
0.000129
0.000118
0.000100
0.000105
0.000052
0.000097
0.000087
0.000089
0.000110
0.000084
0.000139
0.000160
0.000170
0.000176
0.000168
0.000197
0.000173
0.000194
0.000155
0.000178
0.000142
0.000149
0.000110
0.000118
0.000110
0.000108
0.000123
0.000100
0.000110
0.000113
0.000073
0.000118
0.000092
0.000097
0.000081
0.000142
0.000102
0.000142
0.000115
0.000165
0.000121
0.000149
0.000170
0.000155
0.000178
0.000168
0.000129
0.000155
0.000121
0.000113
0.000134
0.000129
0.000108
0.000113
0.000121
0.000134
0.000102
0.000155
0.000149
0.000147
0.000121
0.000139
0.000134
0.000131
0.000134
0.000168
0.000123
0.000139
0.000136
0.000136
0.000136
0.000136
0.000129
0.000126
0.000118
0.000105
0.000123
0.000136
0.000123
0.000152
0.000115
0.000176
0.000139
0.000155
0.000163
0.000165
0.000139
0.000152
0.000144
0.000157
0.000142
0.000129
0.000100
0.000092
0.000076
0.000087
0.000063
0.000058
0.000076
0.000094
0.000089
0.000129
0.000126
0.000155
0.000131
0.000123
0.000108
0.000126
0.000131
0.000142
0.000115
0.000126
0.000123
0.000147
0.000121
0.000157
0.000131
0.000136
0.000131
0.000131
0.000102
0.000092
0.000089
0.000105
0.000060
0.000089
0.000089
0.000131
0.000134
0.000155
0.000147
0.000163
0.000152
0.000160
0.000160
0.000176
0.000155
0.000149
0.000139
0.000152
0.000144
0.000139
0.000121
0.000123
0.000108
0.000110
0.000108
0.000115
0.000100
0.000149
0.000139
0.000155
0.000142
0.000136
0.000149
0.000142
0.000149
0.000152
0.000142
0.000178
0.000147
0.000178
0.000136
0.000149
0.000134
0.000142
0.000139
0.000134
0.000100
0.000108
0.000100
0.000105
0.000100
0.000118
0.000100
0.000134
0.000115
0.000155
0.000155
0.000165
0.000152
0.000189
0.000160
0.000155
0.000149
0.000136
0.000149
0.000147
0.000134
0.000129
0.000105
0.000081
0.000076
0.000066
0.000076
0.000118
0.000118
0.000134
0.000147
0.000149
0.000168
0.000189
0.000178
0.000184
0.000157
0.000165
0.000129
0.000147
0.000094
0.000126
0.000113
0.000123
0.000097
0.000115
0.000097
0.000097
0.000097
0.000129
0.000121
0.000142
0.000163
0.000165
0.000149
0.000165
0.000152
0.000168
0.000184
0.000178
0.000160
0.000139
0.000134
0.000123
0.000079
0.000142
0.000121
0.000155
0.000121
0.000118
0.000110
0.000129
0.000094
0.000068
0.000071
0.000094
0.000113
0.000094
0.000134
0.000170
0.000136
0.000157
0.000126
0.000136
0.000113
0.000173
0.000197
0.000218
0.000173
0.000110
0.000034
0.000050
0.000037
0.000063
0.000073
0.000089
0.000102
0.000134
0.000157
0.000160
0.000163
0.000157
0.000123
0.000113
0.000081
0.000134
0.000163
0.000160
0.000142
0.000157
0.000105
0.000134
0.000170
0.000184
0.000199
0.000244
0.000197
0.000165
0.000100
0.000039
0.000052
0.000073
0.000094
0.000134
0.000105
0.000136
0.000142
0.000142
0.000134
0.000144
0.000136
0.000165
0.000136
0.000142
0.000157
0.000160
0.000173
0.000202
0.000147
0.000178
0.000173
0.000168
0.000184
0.000157
0.000055
0.000063
0.000021
0.000045
0.000052
0.000050
0.000039
0.000073
0.000066
0.000079
0.000084
0.000149
0.000197
0.000268
0.000323
0.000365
0.000336
0.000307
0.000228
0.000189
0.000129
0.000084
0.000039
-0.000000
-0.000063
-0.000029
-0.000042
0.000013
0.000052
0.000123
0.000165
0.000226
0.000236
0.000283
0.000270
0.000228
0.000189
0.000173
0.000123
0.000115
0.000034
0.000081
0.000110
0.000139
0.000126
0.000129
0.000121
0.000168
0.000170
0.000226
0.000236
0.000244
0.000228
0.000199
0.000160
0.000147
0.000094
0.000076
0.000066
0.000087
-0.000016
0.000039
0.000045
0.000042
0.000026
-0.000032
-0.000226
-0.000491
-0.000976
-0.001761
-0.002842
-0.004180
-0.005801
-0.007407
-0.009212
-0.011017
-0.012770
-0.014410
-0.015853
-0.016874
-0.017784
-0.018403
-0.018726
-0.018852
-0.018878
-0.018842
-0.018582
-0.018191
-0.017582
-0.016824
-0.016084
-0.015360
-0.014788
-0.014176
-0.013597
-0.012985
-0.012458
-0.011970
-0.011571
-0.011303
-0.010968
-0.010611
-0.010133
-0.009590
-0.009288
-0.009118
-0.008905
-0.008701
-0.008457
-0.008176
-0.007995
-0.007871
-0.007701
-0.007486
-0.007310
-0.007045
-0.006704
-0.006510
-0.006465
-0.006470
-0.006423
-0.006339
-0.006308
-0.006313
-0.006365
-0.006405
-0.006525
-0.006565
-0.006560
-0.006633
-0.006701
-0.006730
-0.006756
-0.006785
-0.006735
-0.006609
-0.006457
-0.006281
-0.006176
-0.006153
-0.006072
-0.005990
-0.005838
-0.005644
-0.005479
-0.005277
-0.005161
-0.005069
-0.004933
-0.004872
-0.004872
-0.004841
-0.004760
-0.004571
-0.004466
-0.004245
-0.004109
-0.003959
-0.003925
-0.003938
-0.003910
-0.003820
-0.003660
-0.003419
-0.003233
-0.003075
-0.003020
-0.002939
-0.002923
-0.002947
-0.002996
-0.003088
-0.003117
-0.003104
-0.003038
-0.002907
-0.002847
-0.002844
-0.002781
-0.002802
-0.002975
-0.003099
-0.003125
-0.003115
-0.003115
-0.003101
-0.003070
-0.003073
-0.003059
-0.003025
-0.002949
-0.002860
-0.002776
-0.002624
-0.002524
-0.002409
-0.002430
-0.002485
-0.002587
-0.002697
-0.002781
-0.002752
-0.002760
-0.002682
-0.002598
-0.002592
-0.002571
-0.002532
-0.002514
-0.002443
-0.002338
-0.002207
-0.002083
-0.001892
-0.001755
-0.001661
-0.001708
-0.001742
-0.001719
-0.001637
-0.001629
-0.001535
-0.001477
-0.001490
-0.001569
-0.001532
-0.001511
-0.001483
-0.001561
-0.001700
-0.001879
-0.002034
-0.002133
-0.002167
-0.002159
-0.002107
-0.002052
-0.001923
-0.001847
-0.001721
-0.001635
-0.001514
-0.001490
-0.001422
-0.001417
-0.001367
-0.001412
-0.001435
-0.001451
-0.001420
-0.001406
-0.001330
-0.001330
-0.001296
-0.001312
-0.001288
-0.001291
-0.001288
-0.001238
-0.001139
-0.001147
-0.001094
-0.001147
-0.001170
-0.001231
-0.001236
-0.001278
-0.001278
-0.001278
-0.001236
-0.001233
-0.001176
-0.001115
-0.001042
-0.001013
-0.000968
-0.000987
-0.001015
-0.001015
-0.001065
-0.001215
-0.001296
-0.001399
-0.001454
-0.001456
-0.001362
-0.001299
-0.001220
-0.001141
-0.001047
-0.001013
-0.000976
-0.000926
-0.000884
-0.000850
-0.000808
-0.000821
-0.000866
-0.000908
-0.000955
-0.001078
-0.001102
-0.001078
-0.001094
-0.001139
-0.001089
-0.001139
-0.001097
-0.001102
-0.001065
-0.001026
-0.000895
-0.000853
-0.000834
-0.000848
-0.000800
-0.000853
-0.000882
-0.000892
-0.000871
-0.000926
-0.000960
-0.000934
-0.000897
-0.000918
-0.000887
-0.000897
-0.000918
-0.000913
-0.000900
-0.000882
-0.000842
-0.000848
-0.000816
-0.000890
-0.000905
-0.000918
-0.000911
-0.000895
-0.000840
-0.000779
-0.000719
-0.000648
-0.000614
-0.000606
-0.000611
-0.000674
-0.000792
-0.000963
-0.000994
-0.001010
-0.000987
-0.000929
-0.000848
-0.000816
-0.000787
-0.000782
-0.000761
-0.000698
-0.000632
-0.000661
-0.000653
-0.000659
-0.000611
-0.000638
-0.000577
-0.000611
-0.000604
-0.000598
-0.000609
-0.000680
-0.000722
-0.000790
-0.000806
-0.000842
-0.000845
-0.000816
-0.000792
-0.000735
-0.000667
-0.000667
-0.000625
-0.000593
-0.000580
-0.000638
-0.000638
-0.000653
-0.000604
-0.000580
-0.000525
-0.000506
-0.000535
-0.000580
-0.000606
-0.000687
-0.000687
-0.000748
-0.000722
-0.000701
-0.000653
-0.000604
-0.000590
-0.000604
-0.000601
-0.000580
-0.000480
-0.000488
-0.000443
-0.000438
-0.000433
-0.000499
-0.000504
-0.000533
-0.000533
-0.000585
-0.000567
-0.000569
-0.000601
-0.000659
-0.000695
-0.000740
-0.000758
-0.000769
-0.000732
-0.000719
-0.000635
-0.000585
-0.000509
-0.000459
-0.000386
-0.000409
-0.000381
-0.000415
-0.000417
-0.000446
-0.000443
-0.000514
-0.000530
-0.000598
-0.000619
-0.000630
-0.000577
-0.000567
-0.000548
-0.000551
-0.000559
-0.000583
-0.000569
-0.000559
-0.000472
-0.000459
-0.000454
-0.000467
-0.000501
-0.000567
-0.000556
-0.000538
-0.000499
-0.000499
-0.000459
-0.000462
-0.000464
-0.000472
-0.000451
-0.000538
-0.000520
-0.000512
-0.000512
-0.000527
-0.000493
-0.000514
-0.000520
-0.000564
-0.000577
-0.000611
-0.000572
-0.000598
-0.000638
-0.000635
-0.000588
-0.000580
-0.000548
-0.000527
-0.000420
-0.000449
-0.000436
-0.000407
-0.000415
-0.000443
-0.000420
-0.000402
-0.000375
-0.000386
-0.000344
-0.000391
-0.000339
-0.000346
-0.000302
-0.000325
-0.000333
-0.000402
-0.000422
-0.000433
-0.000478
-0.000514
-0.000464
-0.000501
-0.000527
-0.000541
-0.000527
-0.000546
-0.000583
-0.000575
-0.000530
-0.000493
-0.000459
-0.000433
-0.000394
-0.000415
-0.000336
-0.000344
-0.000323
-0.000318
-0.000291
-0.000278
-0.000265
-0.000291
-0.000312
-0.000386
-0.000375
-0.000443
-0.000457
-0.000509
-0.000485
-0.000499
-0.000509
-0.000535
-0.000506
-0.000480
-0.000415
-0.000352
-0.000318
-0.000260
-0.000210
-0.000226
-0.000186
-0.000194
-0.000205
-0.000286
-0.000362
-0.000443
-0.000491
-0.000535
-0.000530
-0.000546
-0.000499
-0.000480
-0.000415
-0.000391
-0.000367
-0.000378
-0.000386
-0.000373
-0.000341
-0.000336
-0.000255
-0.000205
-0.000110
-0.000142
-0.000142
-0.000136
-0.000147
-0.000218
-0.000255
-0.000341
-0.000399
-0.000438
-0.000415
-0.000446
-0.000420
-0.000438
-0.000454
-0.000438
-0.000375
-0.000402
-0.000318
-0.000294
-0.000268
-0.000278
-0.000289
-0.000304
-0.000273
-0.000270
-0.000241
-0.000304
-0.000323
-0.000381
-0.000402
-0.000436
-0.000404
-0.000454
-0.000428
-0.000409
-0.000365
-0.000383
-0.000333
-0.000281
-0.000223
-0.000257
-0.000241
-0.000252
-0.000239
-0.000226
-0.000157
-0.000173
-0.000181
-0.000202
-0.000215
-0.000220
-0.000210
-0.000249
-0.000257
-0.000336
-0.000373
-0.000396
-0.000354
-0.000362
-0.000360
-0.000365
-0.000352
-0.000344
-0.000349
-0.000336
-0.000281
-0.000291
-0.000294
-0.000283
-0.000265
-0.000226
-0.000213
-0.000241
-0.000163
-0.000210
-0.000205
-0.000255
-0.000247
-0.000257
-0.000262
-0.000276
-0.000304
-0.000318
-0.000323
-0.000315
-0.000260
-0.000228
-0.000189
-0.000171
-0.000157
-0.000157
-0.000131
-0.000155
-0.000131
-0.000163
-0.000123
-0.000155
-0.000173
-0.000181
-0.000255
-0.000294
-0.000291
-0.000297
-0.000278
-0.000257
-0.000234
-0.000262
-0.000247
-0.000252
-0.000257
-0.000255
-0.000247
-0.000249
-0.000239
-0.000207
-0.000223
-0.000207
-0.000142
-0.000163
-0.000163
-0.000152
-0.000173
-0.000231
-0.000268
-0.000286
-0.000291
-0.000354
-0.000320
-0.000333
-0.000328
-0.000312
-0.000241
-0.000252
-0.000220
-0.000210
-0.000178
-0.000231
-0.000186
-0.000181
-0.000197
-0.000299
-0.000283
-0.000297
-0.000283
-0.000299
-0.000310
-0.000357
-0.000349
-0.000375
-0.000339
-0.000310
-0.000239
-0.000234
-0.000197
-0.000215
-0.000220
-0.000220
-0.000192
-0.000207
-0.000163
-0.000160
-0.000152
-0.000176
-0.000173
-0.000155
-0.000150
-0.000205
-0.000207
-0.000244
-0.000268
-0.000304
-0.000278
-0.000278
-0.000255
-0.000223
-0.000205
-0.000215
-0.000157
-0.000126
-0.000108
-0.000139
-0.000100
-0.000144
-0.000173
-0.000186
-0.000178
-0.000226
-0.000234
-0.000276
-0.000302
-0.000291
-0.000286
-0.000255
-0.000231
-0.000262
-0.000223
-0.000234
-0.000244
-0.000234
-0.000223
-0.000244
-0.000207
-0.000199
-0.000155
-0.000152
-0.000118
-0.000129
-0.000129
-0.000155
-0.000139
-0.000163
-0.000184
-0.000218
-0.000213
-0.000215
-0.000236
-0.000228
-0.000236
-0.000286
-0.000257
-0.000281
-0.000226
-0.000199
-0.000236
-0.000186
-0.000218
-0.000239
-0.000171
-0.000189
-0.000150
-0.000126
-0.000163
-0.000210
-0.000197
-0.000213
-0.000189
-0.000215
-0.000218
-0.000297
-0.000297
-0.000333
-0.000378
-0.000391
-0.000352
-0.000318
-0.000223
-0.000199
-0.000150
-0.000134
-0.000084
-0.000053
-0.000042
-0.000095
-0.000039
-0.000060
-0.000097
-0.000123
-0.000121
-0.000163
-0.000165
-0.000205
-0.000144
-0.000157
-0.000136
-0.000144
-0.000136
-0.000163
-0.000144
-0.000173
-0.000168
-0.000147
-0.000168
-0.000184
-0.000131
-0.000131
-0.000068
-0.000071
-0.000034
-0.000045
-0.000063
-0.000108
-0.000121
-0.000165
-0.000173
-0.000207
-0.000236
-0.000262
-0.000239
-0.000289
-0.000226
-0.000241
-0.000202
-0.000192
-0.000131
-0.000110
-0.000055
-0.000063
-0.000039
-0.000026
-0.000026
-0.000005
-0.000021
-0.000097
-0.000089
-0.000126
-0.000165
-0.000231
-0.000257
-0.000302
-0.000278
-0.000262
-0.000205
-0.000228
-0.000152
-0.000157
-0.000134
-0.000131
-0.000050
-0.000013
0.000005
0.000008
0.000016
-0.000032
-0.000045
-0.000074
-0.000089
-0.000102
-0.000097
-0.000142
-0.000136
-0.000199
-0.000184
-0.000223
-0.000226
-0.000226
-0.000192
-0.000213
-0.000184
-0.000184
-0.000157
-0.000205
-0.000144
-0.000123
-0.000126
-0.000092
-0.000068
-0.000087
-0.000058
-0.000081
-0.000047
-0.000058
-0.000029
-0.000060
-0.000045
-0.000092
-0.000079
-0.000129
-0.000165
-0.000168
-0.000131
-0.000176
-0.000144
-0.000126
-0.000081
-0.000066
-0.000034
-0.000058
-0.000071
-0.000095
-0.000081
-0.000100
-0.000089
-0.000136
-0.000144
-0.000152
-0.000157
-0.000184
-0.000184
-0.000239
-0.000241
-0.000278
-0.000220
-0.000189
-0.000163
-0.000131
-0.000118
-0.000113
-0.000113
-0.000121
-0.000113
-0.000134
-0.000079
-0.000113
-0.000068
-0.000079
-0.000060
-0.000079
-0.000102
-0.000121
-0.000089
-0.000102
-0.000053
-0.000058
-0.000029
-0.000029
-0.000047
-0.000058
-0.000047
-0.000089
-0.000050
-0.000037
-0.000003
-0.000003
-0.000003
-0.000011
-0.000042
-0.000076
-0.000087
-0.000110
-0.000116
-0.000110
-0.000113
-0.000144
-0.000084
-0.000113
-0.000066
-0.000116
-0.000066
-0.000097
-0.000081
-0.000095
-0.000079
-0.000074
-0.000034
-0.000026
-0.000011
-0.000032
-0.000003
-0.000003
0.000003
-0.000029
-0.000032
-0.000039
-0.000024
-0.000047
-0.000037
-0.000068
-0.000047
-0.000071
-0.000089
-0.000063
-0.000039
-0.000079
-0.000039
-0.000060
-0.000029
-0.000037
-0.000063
-0.000074
-0.000089
-0.000100
-0.000076
-0.000097
-0.000105
-0.000097
-0.000087
-0.000095
-0.000071
-0.000071
-0.000042
-0.000060
-0.000063
-0.000108
-0.000126
-0.000131
-0.000123
-0.000142
-0.000139
-0.000160
-0.000142
-0.000142
-0.000108
-0.000113
-0.000081
-0.000097
-0.000087
-0.000126
-0.000100
-0.000089
-0.000084
-0.000042
-0.000013
-0.000047
0.000005
-0.000037
-0.000026
-0.000105
-0.000105
-0.000100
-0.000121
-0.000147
-0.000118
-0.000108
-0.000068
-0.000026
0.000003
0.000005
0.000042
0.000021
0.000042
0.000008
0.000013
-0.000021
-0.000005
-0.000050
-0.000039
-0.000110
-0.000108
-0.000142
-0.000134
-0.000165
-0.000110
-0.000079
-0.000058
-0.000074
-0.000076
-0.000110
-0.000110
-0.000139
-0.000102
-0.000108
-0.000095
-0.000102
-0.000063
-0.000089
-0.000079
-0.000113
-0.000089
-0.000076
-0.000058
-0.000095
-0.000053
-0.000047
-0.000092
-0.000105
-0.000074
-0.000081
-0.000026
-0.000050
0.000013
-0.000032
-0.000029
-0.000079
-0.000092
-0.000102
-0.000102
-0.000110
-0.000063
-0.000050
-0.000013
-0.000032
0.000031
-0.000003
-0.000018
-0.000050
-0.000055
-0.000113
-0.000079
-0.000136
-0.000084
-0.000053
-0.000053
-0.000047
-0.000026
-0.000045
-0.000008
-0.000047
-0.000050
-0.000076
-0.000018
-0.000037
-0.000016
-0.000013
0.000021
0.000005
-0.000003
-0.000042
-0.000037
-0.000021
-0.000003
-0.000042
-0.000032
-0.000039
-0.000039
-0.000026
0.000005
-0.000032
-0.000005
-0.000024
-0.000018
-0.000050
-0.000016
-0.000013
-0.000029
-0.000060
-0.000026
-0.000071
-0.000045
-0.000053
-0.000047
-0.000034
-0.000011
-0.000011
-0.000011
-0.000013
0.000010
-0.000016
-0.000063
-0.000100
-0.000095
-0.000102
-0.000102
-0.000150
-0.000147
-0.000160
-0.000152
-0.000079
-0.000058
-0.000055
-0.000053
-0.000050
-0.000016
-0.000021
0.000010
0.000010
0.000003
-0.000029
-0.000032
-0.000045
-0.000011
-0.000037
-0.000008
0.000010
0.000052
0.000029
0.000050
0.000021
0.000058
0.000024
0.000052
0.000016
0.000003
-0.000053
-0.000042
-0.000071
-0.000081
-0.000116
-0.000089
-0.000110
-0.000071
-0.000071
-0.000071
-0.000050
-0.000042
-0.000071
0.000003
-0.000008
0.000013
0.000013
-0.000026
-0.000053
-0.000013
-0.000032
-0.000026
-0.000026
-0.000013
-0.000026
0.000016
-0.000000
0.000013
-0.000013
-0.000008
0.000010
0.000024
-0.000000
0.000045
0.000052
0.000060
0.000037
0.000026
-0.000016
-0.000003
0.000003
0.000005
0.000024
0.000073
0.000042
0.000071
0.000063
0.000076
0.000029
0.000066
-0.000021
-0.000029
