Start time = 18:35:45.572964
End time = 18:35:55.509616
laser_energy = 7.680
channel_1_dial = 850
channel_2_dial = 850
channel_3_dial = 850
channel_4_dial = 850
NG-1-LII = 0
NG-3-15399 = 0
NG-4-LII = 0
NG-4-15399 = 0
NG-5-LII = 0
NG-5-15399 = 0
NG-9-LII = 0
NG-9-15399 = 0
NG-10-01 = 0
NG-11-15399 = 0
NG-12-15399 = 0
NG-4A-2001 = 0
NG-4B-2001 = 0
NG-5A-2001 = 0
NG-3-2001 = 0
NG-5B-2001 = 0
NG-1-2001 = 0
NG-9-2001 = 0
NG-10-2001 = 0
NG-11-2001 = 0
NG-12-2001 = 0
AND-200SN09 = 0
AND-100SN09 = 0
AND-050SN09 = 0
AND-030SN09 = 0
AND-015SN05 = 0
PMT#1Voltage = 0
PMT#2Voltage = 0
t0(sec) = 0.000000E+0
dt(sec) = 4.000000E-10
F1:INSP "
DESCRIPTOR_NAME    : WAVEDESC           
TEMPLATE_NAME      : LECROY_2_3         
COMM_TYPE          : word               
COMM_ORDER         : HIFIRST            
WAVE_DESCRIPTOR    : 346                
USER_TEXT          : 0                  
RES_DESC1          : 0                  
TRIGTIME_ARRAY     : 0                  
RIS_TIME_ARRAY     : 0                  
RES_ARRAY1         : 0                  
WAVE_ARRAY_1       : 10002              
WAVE_ARRAY_2       : 0                  
RES_ARRAY2         : 0                  
RES_ARRAY3         : 0                  
INSTRUMENT_NAME    : LECROYHDO6104      
INSTRUMENT_NUMBER  : 6308               
TRACE_LABEL        :                    
RESERVED1          : 5001               
RESERVED2          : 0                  
WAVE_ARRAY_COUNT   : 5001               
PNTS_PER_SCREEN    : 5000               
FIRST_VALID_PNT    : 0                  
LAST_VALID_PNT     : 5000               
FIRST_POINT        : 0                  
SPARSING_FACTOR    : 1                  
SEGMENT_INDEX      : 0                  
SUBARRAY_COUNT     : 1                  
SWEEPS_PER_ACQ     : 200                
POINTS_PER_PAIR    : 0                  
PAIR_OFFSET        : 0                  
VERTICAL_GAIN      : 3.4984e-006        
VERTICAL_OFFSET    : 8.8999e-002        
MAX_VALUE          : 3.0778e+004        
MIN_VALUE          : 1.3426e+004        
NOMINAL_BITS       : 16                 
NOM_SUBARRAY_COUNT : 1                  
HORIZ_INTERVAL     : 4.0000e-010        
HORIZ_OFFSET       : -2.00000000e-007   
PIXEL_OFFSET       : -2.00000000e-007   
VERTUNIT           : Unit Name = V
HORUNIT            : Unit Name = S
HORIZ_UNCERTAINTY  : 1.0000e-012        
TRIGGER_TIME       : Date = APR 17, 2024, Time = 19:35:41.450611058
ACQ_DURATION       : 9.9988e+000        
RECORD_TYPE        : single_sweep       
PROCESSING_DONE    : no_processing      
RESERVED5          : 0                  
RIS_SWEEPS         : 1                  
TIMEBASE           : 200_ns/div         
VERT_COUPLING      : DC_50_Ohms         
PROBE_ATT          : 1.0000e+000        
FIXED_VERT_GAIN    : 5_mV/div           
BANDWIDTH_LIMIT    : off                
VERTICAL_VERNIER   : 1.5400e+000        
ACQ_VERT_OFFSET    : 0.0000e+000        
WAVE_SOURCE        : UNKNOWN            
"
0.000420
0.000441
0.000434
0.000413
0.000441
0.000444
0.000434
0.000392
0.000430
0.000430
0.000416
0.000416
0.000430
0.000437
0.000413
0.000420
0.000441
0.000434
0.000420
0.000402
0.000448
0.000465
0.000437
0.000416
0.000441
0.000455
0.000413
0.000437
0.000427
0.000423
0.000434
0.000406
0.000434
0.000416
0.000427
0.000423
0.000427
0.000444
0.000430
0.000427
0.000441
0.000437
0.000434
0.000409
0.000392
0.000434
0.000420
0.000423
0.000413
0.000406
0.000388
0.000392
0.000437
0.000409
0.000406
0.000441
0.000462
0.000423
0.000430
0.000420
0.000416
0.000399
0.000395
0.000392
0.000406
0.000409
0.000420
0.000420
0.000441
0.000451
0.000462
0.000444
0.000455
0.000427
0.000437
0.000413
0.000423
0.000416
0.000413
0.000416
0.000420
0.000413
0.000413
0.000416
0.000451
0.000455
0.000427
0.000441
0.000458
0.000420
0.000420
0.000430
0.000451
0.000448
0.000441
0.000430
0.000437
0.000409
0.000430
0.000402
0.000430
0.000406
0.000388
0.000402
0.000399
0.000444
0.000416
0.000441
0.000465
0.000430
0.000413
0.000420
0.000458
0.000434
0.000413
0.000437
0.000420
0.000455
0.000427
0.000430
0.000451
0.000451
0.000409
0.000416
0.000437
0.000437
0.000399
0.000451
0.000451
0.000462
0.000462
0.000430
0.000490
0.000455
0.000437
0.000451
0.000476
0.000451
0.000448
0.000458
0.000437
0.000434
0.000430
0.000448
0.000423
0.000437
0.000402
0.000413
0.000423
0.000427
0.000409
0.000413
0.000434
0.000416
0.000434
0.000441
0.000420
0.000434
0.000444
0.000434
0.000451
0.000437
0.000416
0.000444
0.000427
0.000444
0.000444
0.000406
0.000420
0.000420
0.000402
0.000399
0.000423
0.000374
0.000406
0.000392
0.000420
0.000413
0.000420
0.000381
0.000434
0.000451
0.000441
0.000451
0.000469
0.000413
0.000430
0.000409
0.000413
0.000423
0.000402
0.000371
0.000420
0.000388
0.000357
0.000346
0.000357
0.000399
0.000402
0.000353
0.000392
0.000437
0.000416
0.000420
0.000437
0.000465
0.000434
0.000420
0.000430
0.000409
0.000409
0.000374
0.000399
0.000413
0.000392
0.000409
0.000392
0.000406
0.000399
0.000388
0.000409
0.000416
0.000395
0.000420
0.000437
0.000444
0.000413
0.000399
0.000427
0.000455
0.000430
0.000434
0.000448
0.000469
0.000444
0.000434
0.000437
0.000430
0.000402
0.000416
0.000441
0.000455
0.000427
0.000437
0.000423
0.000430
0.000413
0.000430
0.000465
0.000448
0.000437
0.000430
0.000469
0.000444
0.000437
0.000430
0.000427
0.000420
0.000455
0.000437
0.000423
0.000427
0.000416
0.000437
0.000434
0.000437
0.000420
0.000427
0.000455
0.000448
0.000423
0.000441
0.000448
0.000423
0.000420
0.000455
0.000451
0.000458
0.000434
0.000437
0.000420
0.000441
0.000430
0.000444
0.000434
0.000420
0.000395
0.000416
0.000469
0.000448
0.000434
0.000416
0.000427
0.000430
0.000392
0.000430
0.000451
0.000437
0.000413
0.000416
0.000472
0.000441
0.000437
0.000430
0.000423
0.000420
0.000434
0.000430
0.000416
0.000402
0.000385
0.000420
0.000385
0.000420
0.000385
0.000406
0.000399
0.000392
0.000388
0.000413
0.000434
0.000448
0.000448
0.000434
0.000444
0.000430
0.000423
0.000427
0.000416
0.000416
0.000427
0.000416
0.000416
0.000420
0.000423
0.000420
0.000420
0.000434
0.000455
0.000427
0.000462
0.000476
0.000462
0.000455
0.000462
0.000458
0.000444
0.000441
0.000448
0.000437
0.000455
0.000427
0.000451
0.000441
0.000427
0.000416
0.000413
0.000462
0.000409
0.000434
0.000395
0.000434
0.000413
0.000402
0.000434
0.000406
0.000434
0.000402
0.000451
0.000437
0.000430
0.000444
0.000427
0.000430
0.000441
0.000472
0.000479
0.000437
0.000392
0.000392
0.000395
0.000434
0.000423
0.000406
0.000423
0.000441
0.000416
0.000416
0.000434
0.000441
0.000420
0.000451
0.000462
0.000406
0.000441
0.000399
0.000441
0.000434
0.000416
0.000409
0.000420
0.000434
0.000423
0.000409
0.000420
0.000413
0.000423
0.000416
0.000490
0.000444
0.000388
0.000388
0.000402
0.000413
0.000409
0.000437
0.000448
0.000441
0.000430
0.000416
0.000423
0.000416
0.000392
0.000374
0.000406
0.000395
0.000399
0.000399
0.000406
0.000437
0.000409
0.000402
0.000423
0.000430
0.000483
0.000472
0.000451
0.000406
0.000360
0.000381
0.000385
0.000406
0.000409
0.000430
0.000462
0.000486
0.000476
0.000476
0.000434
0.000406
0.000395
0.000413
0.000378
0.000395
0.000364
0.000395
0.000437
0.000434
0.000444
0.000423
0.000465
0.000476
0.000500
0.000525
0.000518
0.000514
0.000469
0.000395
0.000388
0.000364
0.000329
0.000385
0.000402
0.000416
0.000434
0.000399
0.000374
0.000392
0.000381
0.000409
0.000434
0.000430
0.000420
0.000437
0.000483
0.000500
0.000493
0.000493
0.000521
0.000535
0.000497
0.000525
0.000476
0.000409
0.000360
0.000339
0.000291
0.000284
0.000305
0.000284
0.000298
0.000322
0.000322
0.000374
0.000434
0.000532
0.000595
0.000630
0.000665
0.000640
0.000588
0.000567
0.000507
0.000420
0.000378
0.000270
0.000270
0.000217
0.000214
0.000203
0.000263
0.000315
0.000367
0.000427
0.000437
0.000514
0.000507
0.000511
0.000542
0.000490
0.000490
0.000448
0.000399
0.000406
0.000409
0.000420
0.000434
0.000465
0.000395
0.000409
0.000434
0.000469
0.000500
0.000518
0.000514
0.000486
0.000451
0.000444
0.000409
0.000427
0.000371
0.000360
0.000374
0.000301
0.000333
0.000235
0.000039
-0.000441
-0.001413
-0.003267
-0.006804
-0.013157
-0.022869
-0.032591
-0.040508
-0.047638
-0.054208
-0.059252
-0.062730
-0.065333
-0.067330
-0.068922
-0.069996
-0.070552
-0.070745
-0.070878
-0.070755
-0.070528
-0.070356
-0.070122
-0.069646
-0.069139
-0.068733
-0.068149
-0.067523
-0.066837
-0.066232
-0.065620
-0.064927
-0.064252
-0.063573
-0.062915
-0.062202
-0.061309
-0.060270
-0.059312
-0.058276
-0.057451
-0.056849
-0.056475
-0.055946
-0.055394
-0.054904
-0.054411
-0.054131
-0.053840
-0.053456
-0.052896
-0.052203
-0.051507
-0.050807
-0.050153
-0.049863
-0.049873
-0.049915
-0.049985
-0.050181
-0.050569
-0.050898
-0.051168
-0.051556
-0.051850
-0.051955
-0.051990
-0.051944
-0.051853
-0.051671
-0.051580
-0.051524
-0.051489
-0.051370
-0.050996
-0.050461
-0.049842
-0.049121
-0.048603
-0.048127
-0.047550
-0.046903
-0.046280
-0.045434
-0.044556
-0.043643
-0.042698
-0.041883
-0.041313
-0.040893
-0.040434
-0.039945
-0.039448
-0.039084
-0.038493
-0.037877
-0.037349
-0.036919
-0.036317
-0.035138
-0.033868
-0.032654
-0.031625
-0.030880
-0.030356
-0.030230
-0.030349
-0.030600
-0.030887
-0.031314
-0.031772
-0.032021
-0.032126
-0.031912
-0.031779
-0.031545
-0.031283
-0.030964
-0.030461
-0.029813
-0.029187
-0.028680
-0.028012
-0.027455
-0.026910
-0.026367
-0.025909
-0.025591
-0.025307
-0.025157
-0.024909
-0.024485
-0.023971
-0.023317
-0.022862
-0.022530
-0.022376
-0.022148
-0.021851
-0.021505
-0.021088
-0.020539
-0.019951
-0.019444
-0.018881
-0.018384
-0.017821
-0.017303
-0.016736
-0.016208
-0.015701
-0.015211
-0.014914
-0.014655
-0.014438
-0.014371
-0.014473
-0.014613
-0.014557
-0.014469
-0.014553
-0.014753
-0.014872
-0.014896
-0.015015
-0.015116
-0.015029
-0.014938
-0.014949
-0.014819
-0.014700
-0.014588
-0.014466
-0.014291
-0.014238
-0.014091
-0.013889
-0.013619
-0.013350
-0.013010
-0.012710
-0.012514
-0.012272
-0.011996
-0.011730
-0.011580
-0.011447
-0.011268
-0.011139
-0.010957
-0.010778
-0.010569
-0.010317
-0.010114
-0.009879
-0.009627
-0.009334
-0.009155
-0.008980
-0.008760
-0.008564
-0.008508
-0.008340
-0.008078
-0.007864
-0.007728
-0.007735
-0.007668
-0.007665
-0.007647
-0.007658
-0.007759
-0.008067
-0.008372
-0.008487
-0.008536
-0.008606
-0.008501
-0.008333
-0.008235
-0.008291
-0.008267
-0.008137
-0.008032
-0.007885
-0.007759
-0.007647
-0.007539
-0.007388
-0.007151
-0.006892
-0.006717
-0.006486
-0.006363
-0.006286
-0.006265
-0.006189
-0.006094
-0.006077
-0.005996
-0.005867
-0.005744
-0.005604
-0.005387
-0.005223
-0.004964
-0.004782
-0.004681
-0.004712
-0.004817
-0.004842
-0.004793
-0.004775
-0.004845
-0.004800
-0.004873
-0.004964
-0.004971
-0.004922
-0.004845
-0.004810
-0.004779
-0.004758
-0.004807
-0.004898
-0.005045
-0.005251
-0.005359
-0.005429
-0.005510
-0.005545
-0.005534
-0.005457
-0.005408
-0.005300
-0.005122
-0.004912
-0.004793
-0.004555
-0.004275
-0.004173
-0.004048
-0.003866
-0.003694
-0.003677
-0.003715
-0.003607
-0.003498
-0.003428
-0.003267
-0.003064
-0.002911
-0.002841
-0.002729
-0.002697
-0.002704
-0.002736
-0.002760
-0.002813
-0.002907
-0.002953
-0.002928
-0.002932
-0.002900
-0.002904
-0.002932
-0.003005
-0.003127
-0.003194
-0.003232
-0.003260
-0.003278
-0.003407
-0.003498
-0.003544
-0.003561
-0.003649
-0.003642
-0.003568
-0.003502
-0.003383
-0.003372
-0.003313
-0.003173
-0.002987
-0.002855
-0.002778
-0.002645
-0.002617
-0.002582
-0.002592
-0.002533
-0.002519
-0.002403
-0.002396
-0.002365
-0.002316
-0.002232
-0.002155
-0.002116
-0.001994
-0.001934
-0.001924
-0.001896
-0.001847
-0.001875
-0.001878
-0.001847
-0.001875
-0.001931
-0.001955
-0.001917
-0.001910
-0.002025
-0.002102
-0.002116
-0.002137
-0.002169
-0.002214
-0.002225
-0.002186
-0.002235
-0.002218
-0.002155
-0.002116
-0.002127
-0.002186
-0.002225
-0.002281
-0.002361
-0.002382
-0.002305
-0.002263
-0.002295
-0.002190
-0.002067
-0.002067
-0.002022
-0.001920
-0.001802
-0.001711
-0.001599
-0.001494
-0.001392
-0.001371
-0.001371
-0.001371
-0.001406
-0.001417
-0.001424
-0.001434
-0.001333
-0.001315
-0.001245
-0.001189
-0.001154
-0.001193
-0.001294
-0.001322
-0.001382
-0.001438
-0.001494
-0.001574
-0.001665
-0.001697
-0.001637
-0.001578
-0.001567
-0.001539
-0.001560
-0.001564
-0.001581
-0.001613
-0.001599
-0.001557
-0.001504
-0.001504
-0.001546
-0.001557
-0.001539
-0.001490
-0.001494
-0.001452
-0.001424
-0.001403
-0.001403
-0.001294
-0.001165
-0.001091
-0.001084
-0.001112
-0.001091
-0.001070
-0.000944
-0.000801
-0.000693
-0.000644
-0.000696
-0.000724
-0.000703
-0.000769
-0.000832
-0.000888
-0.000993
-0.001077
-0.001084
-0.001112
-0.001126
-0.001179
-0.001263
-0.001298
-0.001287
-0.001315
-0.001287
-0.001284
-0.001273
-0.001256
-0.001301
-0.001287
-0.001228
-0.001193
-0.001161
-0.001102
-0.001088
-0.001070
-0.001077
-0.001123
-0.001179
-0.001214
-0.001256
-0.001179
-0.001046
-0.000962
-0.000881
-0.000836
-0.000773
-0.000766
-0.000804
-0.000857
-0.000850
-0.000804
-0.000811
-0.000773
-0.000728
-0.000728
-0.000717
-0.000735
-0.000749
-0.000773
-0.000780
-0.000745
-0.000703
-0.000724
-0.000759
-0.000804
-0.000822
-0.000822
-0.000811
-0.000769
-0.000818
-0.000843
-0.000857
-0.000850
-0.000846
-0.000906
-0.000962
-0.001053
-0.001102
-0.001119
-0.001088
-0.001088
-0.001060
-0.001077
-0.001123
-0.001140
-0.001098
-0.000979
-0.000906
-0.000773
-0.000665
-0.000556
-0.000490
-0.000462
-0.000476
-0.000507
-0.000546
-0.000609
-0.000616
-0.000630
-0.000661
-0.000665
-0.000658
-0.000735
-0.000804
-0.000811
-0.000860
-0.000846
-0.000804
-0.000766
-0.000738
-0.000689
-0.000707
-0.000742
-0.000710
-0.000686
-0.000700
-0.000665
-0.000672
-0.000679
-0.000689
-0.000696
-0.000679
-0.000742
-0.000783
-0.000787
-0.000815
-0.000790
-0.000731
-0.000668
-0.000626
-0.000623
-0.000616
-0.000623
-0.000598
-0.000574
-0.000584
-0.000584
-0.000507
-0.000455
-0.000402
-0.000318
-0.000196
-0.000203
-0.000206
-0.000224
-0.000234
-0.000269
-0.000287
-0.000364
-0.000406
-0.000434
-0.000469
-0.000451
-0.000455
-0.000479
-0.000511
-0.000570
-0.000563
-0.000570
-0.000563
-0.000609
-0.000616
-0.000605
-0.000591
-0.000616
-0.000584
-0.000560
-0.000567
-0.000514
-0.000514
-0.000507
-0.000549
-0.000542
-0.000528
-0.000497
-0.000458
-0.000413
-0.000399
-0.000360
-0.000367
-0.000276
-0.000276
-0.000294
-0.000283
-0.000339
-0.000346
-0.000350
-0.000374
-0.000339
-0.000294
-0.000269
-0.000301
-0.000287
-0.000287
-0.000269
-0.000252
-0.000315
-0.000353
-0.000392
-0.000430
-0.000402
-0.000353
-0.000308
-0.000259
-0.000248
-0.000238
-0.000287
-0.000371
-0.000378
-0.000339
-0.000360
-0.000458
-0.000451
-0.000392
-0.000406
-0.000444
-0.000444
-0.000451
-0.000420
-0.000409
-0.000367
-0.000315
-0.000273
-0.000304
-0.000294
-0.000287
-0.000259
-0.000290
-0.000290
-0.000231
-0.000157
-0.000136
-0.000136
-0.000112
-0.000115
-0.000185
-0.000157
-0.000136
-0.000140
-0.000175
-0.000196
-0.000245
-0.000231
-0.000273
-0.000276
-0.000248
-0.000311
-0.000388
-0.000441
-0.000357
-0.000269
-0.000241
-0.000220
-0.000196
-0.000175
-0.000234
-0.000220
-0.000241
-0.000297
-0.000322
-0.000339
-0.000329
-0.000381
-0.000413
-0.000364
-0.000374
-0.000322
-0.000378
-0.000357
-0.000304
-0.000273
-0.000248
-0.000255
-0.000196
-0.000185
-0.000255
-0.000297
-0.000290
-0.000266
-0.000262
-0.000189
-0.000178
-0.000220
-0.000199
-0.000178
-0.000147
-0.000157
-0.000206
-0.000164
-0.000157
-0.000115
-0.000098
-0.000084
-0.000052
-0.000087
-0.000136
-0.000175
-0.000126
-0.000136
-0.000140
-0.000094
-0.000056
-0.000122
-0.000182
-0.000150
-0.000189
-0.000220
-0.000273
-0.000308
-0.000266
-0.000290
-0.000301
-0.000311
-0.000329
-0.000329
-0.000304
-0.000273
-0.000224
-0.000199
-0.000150
-0.000115
-0.000063
-0.000084
-0.000049
-0.000073
-0.000136
-0.000175
-0.000266
-0.000332
-0.000311
-0.000311
-0.000336
-0.000283
-0.000266
-0.000238
-0.000220
-0.000213
-0.000175
-0.000199
-0.000206
-0.000171
-0.000168
-0.000115
-0.000077
-0.000056
-0.000045
-0.000042
-0.000073
-0.000080
-0.000073
-0.000108
-0.000066
-0.000059
-0.000066
-0.000042
-0.000080
-0.000119
-0.000143
-0.000168
-0.000154
-0.000185
-0.000185
-0.000147
-0.000140
-0.000182
-0.000168
-0.000182
-0.000245
-0.000238
-0.000234
-0.000227
-0.000178
-0.000122
-0.000115
-0.000094
-0.000108
-0.000101
-0.000136
-0.000143
-0.000164
-0.000199
-0.000164
-0.000199
-0.000150
-0.000168
-0.000154
-0.000115
-0.000112
-0.000105
-0.000049
-0.000028
0.000011
0.000035
0.000056
0.000042
-0.000014
-0.000042
-0.000042
-0.000049
-0.000038
-0.000049
-0.000042
-0.000014
-0.000038
-0.000105
-0.000049
-0.000126
-0.000122
-0.000115
-0.000112
-0.000112
-0.000115
-0.000077
-0.000024
0.000007
-0.000024
0.000011
0.000056
0.000067
0.000056
0.000077
0.000091
0.000081
0.000018
-0.000063
-0.000133
-0.000143
-0.000231
-0.000231
-0.000189
-0.000182
-0.000133
-0.000073
-0.000017
-0.000010
-0.000014
-0.000021
-0.000028
-0.000014
0.000021
0.000018
0.000063
0.000070
0.000070
0.000049
0.000028
0.000000
-0.000052
-0.000066
-0.000094
-0.000126
-0.000129
-0.000147
-0.000161
-0.000126
-0.000178
-0.000175
-0.000196
-0.000203
-0.000168
-0.000091
-0.000003
0.000018
0.000032
0.000021
-0.000007
0.000049
0.000021
0.000035
0.000042
0.000032
0.000018
0.000011
-0.000014
-0.000024
-0.000087
-0.000108
-0.000098
-0.000112
-0.000133
-0.000070
-0.000056
-0.000014
0.000007
0.000004
-0.000014
0.000032
-0.000014
-0.000028
-0.000024
-0.000014
-0.000042
-0.000021
-0.000024
-0.000063
-0.000122
-0.000192
-0.000178
-0.000203
-0.000245
-0.000168
-0.000122
-0.000098
-0.000045
-0.000049
-0.000049
-0.000028
-0.000084
-0.000080
-0.000077
-0.000098
-0.000073
-0.000119
-0.000052
-0.000038
-0.000059
-0.000080
-0.000105
-0.000119
-0.000136
-0.000108
-0.000105
-0.000077
-0.000070
-0.000084
-0.000028
0.000042
-0.000003
0.000046
0.000077
0.000091
0.000070
0.000063
0.000130
0.000112
0.000116
0.000098
0.000105
0.000056
-0.000031
-0.000035
-0.000003
-0.000028
-0.000049
-0.000042
0.000004
-0.000028
-0.000028
0.000004
0.000018
0.000053
0.000070
0.000081
0.000081
0.000091
0.000095
0.000074
0.000105
0.000035
0.000007
-0.000087
-0.000112
-0.000052
-0.000021
-0.000003
0.000021
0.000056
0.000046
0.000039
0.000035
0.000025
0.000056
0.000014
0.000032
0.000070
0.000067
0.000095
0.000112
0.000105
0.000088
0.000056
0.000011
0.000028
0.000018
0.000025
0.000056
0.000049
0.000049
0.000028
0.000014
0.000018
0.000021
0.000011
0.000056
0.000049
0.000053
0.000063
0.000116
0.000147
0.000130
0.000109
0.000133
0.000140
0.000035
0.000039
0.000018
0.000014
-0.000014
-0.000056
-0.000007
0.000007
-0.000003
0.000035
0.000095
0.000077
0.000053
0.000067
0.000074
0.000088
0.000007
-0.000017
-0.000014
-0.000035
-0.000063
0.000004
0.000032
0.000091
0.000116
0.000140
0.000137
0.000112
0.000032
0.000004
0.000021
0.000056
0.000028
0.000035
0.000060
0.000046
0.000053
0.000070
0.000074
0.000070
0.000021
0.000011
0.000011
-0.000007
0.000046
0.000039
0.000091
0.000130
0.000119
0.000109
0.000119
0.000070
0.000021
0.000007
0.000011
-0.000017
-0.000031
-0.000010
0.000018
0.000039
0.000018
-0.000017
-0.000066
-0.000070
-0.000042
-0.000017
-0.000028
0.000011
0.000032
0.000011
-0.000035
0.000011
-0.000003
0.000035
0.000049
-0.000007
0.000011
0.000035
0.000067
0.000084
0.000067
0.000067
0.000067
0.000060
0.000084
0.000116
0.000091
0.000123
0.000116
0.000112
0.000088
0.000091
0.000042
0.000035
0.000046
0.000049
0.000070
0.000095
0.000081
0.000088
0.000063
0.000095
0.000035
0.000007
0.000049
0.000077
0.000074
0.000109
0.000067
0.000060
0.000053
0.000056
0.000049
0.000007
0.000042
0.000074
0.000063
0.000067
0.000098
0.000126
0.000095
0.000077
0.000091
0.000112
0.000112
0.000091
0.000126
0.000161
0.000133
0.000105
0.000140
0.000105
0.000084
0.000077
0.000088
0.000116
0.000112
0.000161
0.000168
0.000130
0.000084
0.000081
0.000091
0.000070
0.000084
0.000067
0.000070
0.000112
0.000088
0.000126
0.000196
0.000242
0.000245
0.000221
0.000217
0.000210
0.000165
0.000165
0.000144
0.000179
0.000140
0.000116
0.000126
0.000116
0.000130
0.000130
0.000144
0.000144
0.000102
0.000095
0.000105
0.000109
0.000130
0.000158
0.000172
0.000158
0.000189
0.000182
0.000196
0.000140
0.000091
0.000119
0.000102
0.000035
0.000053
0.000077
0.000102
0.000151
0.000151
0.000196
0.000196
0.000207
0.000196
0.000151
0.000098
0.000011
0.000014
0.000039
