Start time = 18:33:57.518831
End time = 18:34:07.478241
laser_energy = 7.680
channel_1_dial = 850
channel_2_dial = 850
channel_3_dial = 850
channel_4_dial = 850
NG-1-LII = 0
NG-3-15399 = 0
NG-4-LII = 0
NG-4-15399 = 0
NG-5-LII = 0
NG-5-15399 = 0
NG-9-LII = 0
NG-9-15399 = 0
NG-10-01 = 0
NG-11-15399 = 0
NG-12-15399 = 0
NG-4A-2001 = 0
NG-4B-2001 = 0
NG-5A-2001 = 0
NG-3-2001 = 0
NG-5B-2001 = 0
NG-1-2001 = 0
NG-9-2001 = 0
NG-10-2001 = 0
NG-11-2001 = 0
NG-12-2001 = 0
AND-200SN09 = 0
AND-100SN09 = 0
AND-050SN09 = 0
AND-030SN09 = 0
AND-015SN05 = 0
PMT#1Voltage = 0
PMT#2Voltage = 0
t0(sec) = 0.000000E+0
dt(sec) = 4.000000E-10
F1:INSP "
DESCRIPTOR_NAME    : WAVEDESC           
TEMPLATE_NAME      : LECROY_2_3         
COMM_TYPE          : word               
COMM_ORDER         : HIFIRST            
WAVE_DESCRIPTOR    : 346                
USER_TEXT          : 0                  
RES_DESC1          : 0                  
TRIGTIME_ARRAY     : 0                  
RIS_TIME_ARRAY     : 0                  
RES_ARRAY1         : 0                  
WAVE_ARRAY_1       : 10002              
WAVE_ARRAY_2       : 0                  
RES_ARRAY2         : 0                  
RES_ARRAY3         : 0                  
INSTRUMENT_NAME    : LECROYHDO6104      
INSTRUMENT_NUMBER  : 6308               
TRACE_LABEL        :                    
RESERVED1          : 5001               
RESERVED2          : 0                  
WAVE_ARRAY_COUNT   : 5001               
PNTS_PER_SCREEN    : 5000               
FIRST_VALID_PNT    : 0                  
LAST_VALID_PNT     : 5000               
FIRST_POINT        : 0                  
SPARSING_FACTOR    : 1                  
SEGMENT_INDEX      : 0                  
SUBARRAY_COUNT     : 1                  
SWEEPS_PER_ACQ     : 200                
POINTS_PER_PAIR    : 0                  
PAIR_OFFSET        : 0                  
VERTICAL_GAIN      : 2.6238e-006        
VERTICAL_OFFSET    : 6.5501e-002        
MAX_VALUE          : 3.0816e+004        
MIN_VALUE          : 1.3388e+004        
NOMINAL_BITS       : 16                 
NOM_SUBARRAY_COUNT : 1                  
HORIZ_INTERVAL     : 4.0000e-010        
HORIZ_OFFSET       : -2.00000000e-007   
PIXEL_OFFSET       : -2.00000000e-007   
VERTUNIT           : Unit Name = V
HORUNIT            : Unit Name = S
HORIZ_UNCERTAINTY  : 1.0000e-012        
TRIGGER_TIME       : Date = APR 17, 2024, Time = 19:33:53.351185742
ACQ_DURATION       : 1.0049e+001        
RECORD_TYPE        : single_sweep       
PROCESSING_DONE    : no_processing      
RESERVED5          : 0                  
RIS_SWEEPS         : 1                  
TIMEBASE           : 200_ns/div         
VERT_COUPLING      : DC_50_Ohms         
PROBE_ATT          : 1.0000e+000        
FIXED_VERT_GAIN    : 5_mV/div           
BANDWIDTH_LIMIT    : off                
VERTICAL_VERNIER   : 1.1600e+000        
ACQ_VERT_OFFSET    : 0.0000e+000        
WAVE_SOURCE        : UNKNOWN            
"
0.000160
0.000136
0.000165
0.000184
0.000142
0.000165
0.000160
0.000173
0.000184
0.000157
0.000134
0.000155
0.000126
0.000123
0.000100
0.000147
0.000121
0.000134
0.000149
0.000157
0.000160
0.000152
0.000157
0.000147
0.000126
0.000149
0.000142
0.000142
0.000134
0.000139
0.000118
0.000139
0.000131
0.000129
0.000121
0.000144
0.000110
0.000131
0.000139
0.000142
0.000126
0.000152
0.000134
0.000147
0.000168
0.000170
0.000178
0.000168
0.000176
0.000194
0.000160
0.000165
0.000115
0.000087
0.000118
0.000094
0.000081
0.000115
0.000113
0.000118
0.000076
0.000152
0.000134
0.000129
0.000131
0.000160
0.000173
0.000157
0.000165
0.000157
0.000152
0.000168
0.000134
0.000110
0.000115
0.000118
0.000136
0.000144
0.000121
0.000165
0.000136
0.000134
0.000139
0.000139
0.000144
0.000142
0.000094
0.000139
0.000113
0.000118
0.000129
0.000152
0.000173
0.000170
0.000181
0.000199
0.000194
0.000184
0.000176
0.000197
0.000181
0.000142
0.000144
0.000144
0.000121
0.000129
0.000134
0.000144
0.000149
0.000152
0.000170
0.000144
0.000155
0.000186
0.000123
0.000165
0.000147
0.000152
0.000142
0.000170
0.000149
0.000155
0.000144
0.000160
0.000144
0.000147
0.000129
0.000163
0.000155
0.000142
0.000121
0.000115
0.000126
0.000131
0.000108
0.000144
0.000134
0.000139
0.000108
0.000149
0.000163
0.000168
0.000170
0.000178
0.000197
0.000186
0.000157
0.000152
0.000152
0.000147
0.000144
0.000147
0.000131
0.000144
0.000155
0.000152
0.000147
0.000136
0.000115
0.000123
0.000094
0.000144
0.000163
0.000142
0.000113
0.000142
0.000121
0.000131
0.000134
0.000157
0.000170
0.000157
0.000186
0.000194
0.000202
0.000186
0.000155
0.000168
0.000149
0.000165
0.000155
0.000155
0.000155
0.000170
0.000149
0.000147
0.000152
0.000178
0.000144
0.000191
0.000191
0.000178
0.000202
0.000165
0.000170
0.000212
0.000160
0.000147
0.000136
0.000144
0.000139
0.000139
0.000155
0.000160
0.000157
0.000152
0.000139
0.000163
0.000139
0.000186
0.000173
0.000176
0.000160
0.000176
0.000157
0.000170
0.000170
0.000144
0.000147
0.000186
0.000144
0.000157
0.000181
0.000178
0.000134
0.000147
0.000142
0.000163
0.000160
0.000157
0.000149
0.000157
0.000144
0.000176
0.000170
0.000152
0.000152
0.000160
0.000165
0.000194
0.000168
0.000181
0.000176
0.000181
0.000186
0.000191
0.000168
0.000157
0.000160
0.000173
0.000163
0.000163
0.000189
0.000178
0.000168
0.000197
0.000181
0.000168
0.000170
0.000191
0.000152
0.000149
0.000139
0.000149
0.000131
0.000134
0.000136
0.000147
0.000126
0.000149
0.000131
0.000160
0.000149
0.000131
0.000073
0.000063
0.000058
0.000058
0.000089
0.000108
0.000108
0.000105
0.000115
0.000152
0.000170
0.000136
0.000121
0.000139
0.000123
0.000139
0.000155
0.000184
0.000170
0.000165
0.000173
0.000194
0.000173
0.000181
0.000178
0.000178
0.000152
0.000176
0.000163
0.000163
0.000136
0.000134
0.000163
0.000186
0.000149
0.000197
0.000152
0.000163
0.000168
0.000160
0.000149
0.000163
0.000118
0.000118
0.000134
0.000129
0.000110
0.000147
0.000147
0.000129
0.000126
0.000129
0.000139
0.000152
0.000147
0.000184
0.000176
0.000170
0.000160
0.000155
0.000134
0.000149
0.000121
0.000147
0.000126
0.000155
0.000152
0.000165
0.000160
0.000194
0.000178
0.000160
0.000139
0.000173
0.000126
0.000144
0.000118
0.000129
0.000144
0.000170
0.000155
0.000184
0.000194
0.000184
0.000152
0.000199
0.000170
0.000173
0.000184
0.000168
0.000163
0.000170
0.000134
0.000194
0.000149
0.000155
0.000149
0.000144
0.000157
0.000157
0.000168
0.000191
0.000186
0.000165
0.000165
0.000199
0.000176
0.000191
0.000189
0.000173
0.000152
0.000142
0.000144
0.000155
0.000142
0.000155
0.000155
0.000136
0.000123
0.000087
0.000081
0.000092
0.000100
0.000092
0.000126
0.000149
0.000157
0.000184
0.000163
0.000173
0.000160
0.000197
0.000176
0.000181
0.000155
0.000152
0.000165
0.000136
0.000134
0.000118
0.000121
0.000160
0.000168
0.000191
0.000163
0.000178
0.000155
0.000165
0.000184
0.000173
0.000170
0.000165
0.000144
0.000163
0.000160
0.000165
0.000157
0.000176
0.000176
0.000176
0.000168
0.000202
0.000202
0.000220
0.000170
0.000121
0.000063
0.000060
0.000063
0.000110
0.000126
0.000173
0.000194
0.000262
0.000257
0.000239
0.000236
0.000205
0.000149
0.000110
0.000097
0.000134
0.000163
0.000163
0.000163
0.000189
0.000168
0.000178
0.000197
0.000233
0.000252
0.000254
0.000244
0.000233
0.000165
0.000097
0.000073
0.000094
0.000126
0.000170
0.000186
0.000205
0.000199
0.000157
0.000152
0.000155
0.000144
0.000136
0.000147
0.000189
0.000160
0.000178
0.000223
0.000226
0.000194
0.000210
0.000241
0.000231
0.000202
0.000202
0.000129
0.000105
0.000081
0.000071
0.000089
0.000094
0.000079
0.000115
0.000087
0.000068
0.000068
0.000118
0.000194
0.000278
0.000283
0.000354
0.000365
0.000320
0.000249
0.000220
0.000131
0.000050
0.000016
-0.000053
-0.000108
-0.000102
-0.000079
-0.000008
0.000063
0.000129
0.000173
0.000220
0.000231
0.000286
0.000262
0.000212
0.000226
0.000170
0.000144
0.000113
0.000076
0.000089
0.000129
0.000186
0.000165
0.000168
0.000147
0.000173
0.000184
0.000265
0.000273
0.000291
0.000275
0.000275
0.000233
0.000173
0.000157
0.000131
0.000121
0.000100
0.000026
0.000034
0.000039
0.000076
0.000018
-0.000058
-0.000223
-0.000580
-0.001194
-0.002304
-0.003797
-0.005715
-0.007969
-0.010280
-0.012673
-0.014998
-0.017254
-0.019274
-0.020833
-0.021917
-0.022835
-0.023612
-0.024058
-0.024121
-0.024047
-0.023924
-0.023428
-0.022685
-0.021938
-0.021093
-0.020269
-0.019432
-0.018692
-0.017942
-0.017317
-0.016645
-0.015782
-0.014872
-0.014119
-0.013534
-0.012941
-0.012424
-0.011988
-0.011540
-0.010983
-0.010590
-0.010327
-0.009963
-0.009553
-0.009217
-0.008968
-0.008711
-0.008464
-0.008268
-0.008189
-0.007976
-0.007664
-0.007462
-0.007281
-0.007320
-0.007433
-0.007625
-0.007827
-0.008000
-0.008265
-0.008459
-0.008635
-0.008719
-0.008785
-0.008813
-0.008716
-0.008512
-0.008394
-0.008262
-0.008176
-0.007997
-0.007866
-0.007772
-0.007709
-0.007609
-0.007638
-0.007664
-0.007520
-0.007286
-0.007079
-0.006861
-0.006693
-0.006518
-0.006334
-0.006087
-0.005846
-0.005578
-0.005342
-0.005221
-0.005145
-0.004933
-0.004741
-0.004649
-0.004565
-0.004471
-0.004453
-0.004466
-0.004474
-0.004403
-0.004258
-0.004164
-0.004080
-0.004007
-0.003910
-0.003823
-0.003807
-0.003734
-0.003697
-0.003707
-0.003642
-0.003631
-0.003679
-0.003663
-0.003700
-0.003723
-0.003715
-0.003673
-0.003532
-0.003411
-0.003351
-0.003298
-0.003327
-0.003393
-0.003487
-0.003469
-0.003505
-0.003448
-0.003348
-0.003212
-0.003146
-0.003075
-0.002999
-0.002941
-0.002949
-0.002915
-0.002910
-0.002870
-0.002800
-0.002721
-0.002750
-0.002708
-0.002666
-0.002653
-0.002640
-0.002553
-0.002448
-0.002364
-0.002299
-0.002233
-0.002220
-0.002230
-0.002262
-0.002225
-0.002136
-0.002023
-0.001894
-0.001766
-0.001721
-0.001664
-0.001784
-0.001871
-0.001897
-0.001997
-0.002102
-0.002125
-0.002196
-0.002288
-0.002330
-0.002330
-0.002327
-0.002401
-0.002398
-0.002314
-0.002259
-0.002157
-0.002089
-0.001986
-0.001847
-0.001810
-0.001803
-0.001792
-0.001860
-0.001894
-0.001887
-0.001889
-0.001926
-0.001923
-0.001881
-0.001795
-0.001711
-0.001677
-0.001658
-0.001645
-0.001679
-0.001664
-0.001640
-0.001574
-0.001503
-0.001441
-0.001475
-0.001472
-0.001493
-0.001509
-0.001524
-0.001477
-0.001501
-0.001511
-0.001496
-0.001425
-0.001409
-0.001349
-0.001286
-0.001210
-0.001231
-0.001278
-0.001288
-0.001309
-0.001409
-0.001519
-0.001556
-0.001590
-0.001598
-0.001532
-0.001469
-0.001414
-0.001364
-0.001280
-0.001202
-0.001120
-0.001081
-0.001057
-0.001031
-0.001029
-0.001060
-0.001152
-0.001210
-0.001267
-0.001370
-0.001401
-0.001425
-0.001435
-0.001388
-0.001299
-0.001207
-0.001081
-0.000960
-0.000863
-0.000900
-0.000971
-0.001042
-0.001113
-0.001126
-0.001113
-0.001089
-0.001078
-0.001065
-0.001089
-0.001107
-0.001029
-0.001013
-0.000989
-0.000976
-0.000934
-0.000945
-0.001010
-0.001102
-0.001207
-0.001291
-0.001320
-0.001288
-0.001236
-0.001225
-0.001176
-0.001128
-0.001050
-0.001002
-0.000916
-0.000900
-0.000879
-0.000871
-0.000858
-0.000863
-0.000903
-0.000932
-0.000958
-0.000992
-0.000916
-0.000918
-0.000874
-0.000882
-0.000861
-0.000813
-0.000777
-0.000750
-0.000745
-0.000727
-0.000711
-0.000695
-0.000677
-0.000698
-0.000690
-0.000756
-0.000785
-0.000895
-0.000976
-0.001018
-0.001044
-0.001013
-0.001010
-0.000987
-0.000924
-0.000937
-0.000848
-0.000842
-0.000832
-0.000792
-0.000716
-0.000716
-0.000722
-0.000648
-0.000588
-0.000609
-0.000606
-0.000601
-0.000596
-0.000619
-0.000630
-0.000630
-0.000625
-0.000638
-0.000714
-0.000792
-0.000795
-0.000829
-0.000866
-0.000876
-0.000819
-0.000829
-0.000774
-0.000748
-0.000680
-0.000646
-0.000588
-0.000541
-0.000512
-0.000546
-0.000567
-0.000598
-0.000614
-0.000674
-0.000711
-0.000719
-0.000706
-0.000701
-0.000669
-0.000653
-0.000619
-0.000630
-0.000577
-0.000575
-0.000548
-0.000546
-0.000485
-0.000491
-0.000454
-0.000441
-0.000451
-0.000493
-0.000559
-0.000622
-0.000646
-0.000667
-0.000664
-0.000750
-0.000748
-0.000724
-0.000719
-0.000722
-0.000669
-0.000640
-0.000606
-0.000606
-0.000546
-0.000567
-0.000541
-0.000522
-0.000517
-0.000533
-0.000533
-0.000530
-0.000527
-0.000556
-0.000501
-0.000522
-0.000485
-0.000475
-0.000425
-0.000425
-0.000470
-0.000499
-0.000527
-0.000596
-0.000598
-0.000569
-0.000501
-0.000533
-0.000530
-0.000499
-0.000501
-0.000546
-0.000509
-0.000525
-0.000478
-0.000517
-0.000509
-0.000501
-0.000530
-0.000567
-0.000564
-0.000585
-0.000583
-0.000643
-0.000632
-0.000635
-0.000611
-0.000619
-0.000601
-0.000572
-0.000533
-0.000541
-0.000527
-0.000478
-0.000399
-0.000399
-0.000349
-0.000370
-0.000297
-0.000291
-0.000299
-0.000262
-0.000312
-0.000333
-0.000352
-0.000357
-0.000404
-0.000417
-0.000433
-0.000422
-0.000402
-0.000362
-0.000378
-0.000381
-0.000396
-0.000407
-0.000436
-0.000443
-0.000378
-0.000404
-0.000404
-0.000443
-0.000483
-0.000562
-0.000577
-0.000619
-0.000606
-0.000630
-0.000614
-0.000604
-0.000562
-0.000590
-0.000593
-0.000590
-0.000577
-0.000543
-0.000514
-0.000480
-0.000394
-0.000331
-0.000283
-0.000286
-0.000241
-0.000244
-0.000252
-0.000278
-0.000255
-0.000318
-0.000365
-0.000436
-0.000454
-0.000506
-0.000514
-0.000533
-0.000491
-0.000488
-0.000512
-0.000501
-0.000470
-0.000446
-0.000428
-0.000404
-0.000365
-0.000381
-0.000409
-0.000422
-0.000381
-0.000346
-0.000339
-0.000388
-0.000399
-0.000430
-0.000483
-0.000470
-0.000464
-0.000485
-0.000454
-0.000428
-0.000407
-0.000415
-0.000402
-0.000349
-0.000339
-0.000328
-0.000276
-0.000278
-0.000286
-0.000310
-0.000344
-0.000381
-0.000409
-0.000415
-0.000402
-0.000373
-0.000331
-0.000365
-0.000412
-0.000409
-0.000399
-0.000459
-0.000451
-0.000436
-0.000409
-0.000443
-0.000375
-0.000352
-0.000318
-0.000328
-0.000302
-0.000297
-0.000273
-0.000239
-0.000241
-0.000249
-0.000289
-0.000328
-0.000339
-0.000383
-0.000352
-0.000396
-0.000370
-0.000386
-0.000346
-0.000381
-0.000357
-0.000381
-0.000373
-0.000365
-0.000341
-0.000289
-0.000247
-0.000202
-0.000152
-0.000160
-0.000126
-0.000157
-0.000215
-0.000244
-0.000260
-0.000357
-0.000365
-0.000412
-0.000425
-0.000417
-0.000402
-0.000383
-0.000318
-0.000357
-0.000325
-0.000294
-0.000273
-0.000210
-0.000184
-0.000184
-0.000142
-0.000194
-0.000228
-0.000286
-0.000297
-0.000352
-0.000415
-0.000412
-0.000407
-0.000407
-0.000428
-0.000451
-0.000446
-0.000412
-0.000422
-0.000386
-0.000362
-0.000320
-0.000291
-0.000278
-0.000247
-0.000236
-0.000220
-0.000207
-0.000139
-0.000147
-0.000157
-0.000171
-0.000152
-0.000178
-0.000178
-0.000220
-0.000239
-0.000241
-0.000273
-0.000289
-0.000294
-0.000318
-0.000304
-0.000357
-0.000315
-0.000328
-0.000333
-0.000344
-0.000260
-0.000215
-0.000218
-0.000171
-0.000157
-0.000168
-0.000152
-0.000173
-0.000168
-0.000234
-0.000276
-0.000331
-0.000344
-0.000365
-0.000328
-0.000354
-0.000273
-0.000205
-0.000213
-0.000192
-0.000155
-0.000178
-0.000186
-0.000171
-0.000134
-0.000197
-0.000144
-0.000142
-0.000155
-0.000194
-0.000223
-0.000278
-0.000320
-0.000333
-0.000328
-0.000349
-0.000304
-0.000299
-0.000286
-0.000260
-0.000260
-0.000281
-0.000286
-0.000241
-0.000215
-0.000199
-0.000113
-0.000113
-0.000116
-0.000110
-0.000131
-0.000192
-0.000178
-0.000171
-0.000176
-0.000184
-0.000192
-0.000223
-0.000270
-0.000302
-0.000325
-0.000352
-0.000354
-0.000341
-0.000291
-0.000299
-0.000226
-0.000194
-0.000165
-0.000165
-0.000178
-0.000194
-0.000197
-0.000181
-0.000194
-0.000168
-0.000171
-0.000207
-0.000194
-0.000207
-0.000218
-0.000236
-0.000234
-0.000241
-0.000223
-0.000236
-0.000192
-0.000184
-0.000171
-0.000160
-0.000163
-0.000234
-0.000244
-0.000228
-0.000194
-0.000173
-0.000186
-0.000210
-0.000220
-0.000291
-0.000281
-0.000297
-0.000286
-0.000265
-0.000241
-0.000289
-0.000228
-0.000215
-0.000199
-0.000210
-0.000168
-0.000186
-0.000178
-0.000142
-0.000108
-0.000116
-0.000102
-0.000047
-0.000060
-0.000081
-0.000053
-0.000045
-0.000037
-0.000084
-0.000110
-0.000129
-0.000157
-0.000152
-0.000152
-0.000194
-0.000226
-0.000260
-0.000252
-0.000294
-0.000283
-0.000234
-0.000168
-0.000147
-0.000192
-0.000197
-0.000192
-0.000228
-0.000257
-0.000228
-0.000194
-0.000218
-0.000228
-0.000244
-0.000249
-0.000257
-0.000268
-0.000255
-0.000228
-0.000236
-0.000249
-0.000268
-0.000202
-0.000181
-0.000252
-0.000247
-0.000197
-0.000176
-0.000142
-0.000081
-0.000047
-0.000053
-0.000050
-0.000087
-0.000089
-0.000134
-0.000118
-0.000173
-0.000220
-0.000252
-0.000260
-0.000257
-0.000252
-0.000231
-0.000218
-0.000213
-0.000136
-0.000129
-0.000116
-0.000074
-0.000047
-0.000092
-0.000087
-0.000105
-0.000116
-0.000150
-0.000157
-0.000173
-0.000189
-0.000231
-0.000210
-0.000234
-0.000241
-0.000241
-0.000239
-0.000207
-0.000160
-0.000142
-0.000100
-0.000095
-0.000071
-0.000076
-0.000055
-0.000045
-0.000066
-0.000079
-0.000084
-0.000123
-0.000126
-0.000142
-0.000155
-0.000186
-0.000257
-0.000336
-0.000349
-0.000370
-0.000352
-0.000341
-0.000310
-0.000289
-0.000247
-0.000205
-0.000147
-0.000097
-0.000079
-0.000047
-0.000011
-0.000024
0.000018
0.000021
0.000029
-0.000018
-0.000034
-0.000024
-0.000037
-0.000063
-0.000053
-0.000102
-0.000129
-0.000113
-0.000110
-0.000134
-0.000097
-0.000131
-0.000084
-0.000066
-0.000087
-0.000087
-0.000071
-0.000079
-0.000079
-0.000092
-0.000063
-0.000100
-0.000108
-0.000092
-0.000081
-0.000095
-0.000092
-0.000121
-0.000102
-0.000126
-0.000131
-0.000152
-0.000157
-0.000144
-0.000116
-0.000116
-0.000087
-0.000068
-0.000066
-0.000079
-0.000047
-0.000102
-0.000121
-0.000134
-0.000081
-0.000142
-0.000147
-0.000139
-0.000100
-0.000144
-0.000134
-0.000160
-0.000171
-0.000173
-0.000165
-0.000144
-0.000136
-0.000129
-0.000131
-0.000165
-0.000081
-0.000105
-0.000063
-0.000068
-0.000058
-0.000063
-0.000118
-0.000105
-0.000047
-0.000142
-0.000160
-0.000181
-0.000249
-0.000252
-0.000252
-0.000226
-0.000186
-0.000152
-0.000129
-0.000126
-0.000110
-0.000134
-0.000150
-0.000176
-0.000147
-0.000165
-0.000144
-0.000129
-0.000160
-0.000181
-0.000186
-0.000218
-0.000215
-0.000231
-0.000218
-0.000262
-0.000234
-0.000244
-0.000199
-0.000210
-0.000186
-0.000139
-0.000129
-0.000105
-0.000055
-0.000055
-0.000037
-0.000011
0.000021
-0.000003
0.000026
-0.000000
-0.000011
-0.000034
-0.000034
-0.000063
-0.000147
-0.000207
-0.000199
-0.000210
-0.000231
-0.000226
-0.000197
-0.000202
-0.000173
-0.000228
-0.000197
-0.000184
-0.000147
-0.000134
-0.000087
-0.000074
-0.000079
-0.000110
-0.000110
-0.000100
-0.000097
-0.000066
-0.000034
-0.000045
-0.000084
-0.000084
-0.000126
-0.000194
-0.000150
-0.000197
-0.000199
-0.000192
-0.000150
-0.000157
-0.000126
-0.000108
-0.000126
-0.000147
-0.000131
-0.000139
-0.000102
-0.000087
-0.000076
-0.000079
-0.000053
-0.000047
-0.000105
-0.000150
-0.000118
-0.000171
-0.000207
-0.000186
-0.000129
-0.000147
-0.000131
-0.000084
-0.000060
-0.000100
-0.000089
-0.000100
-0.000074
-0.000058
-0.000026
-0.000024
-0.000024
-0.000045
-0.000068
-0.000110
-0.000068
-0.000105
-0.000136
-0.000129
-0.000100
-0.000118
-0.000097
-0.000076
-0.000087
-0.000108
-0.000139
-0.000131
-0.000136
-0.000144
-0.000123
-0.000136
-0.000092
-0.000089
-0.000087
-0.000108
-0.000092
-0.000089
-0.000055
-0.000021
0.000024
-0.000042
-0.000026
-0.000047
-0.000060
-0.000113
-0.000095
-0.000087
-0.000152
-0.000205
-0.000178
-0.000136
-0.000123
-0.000089
-0.000066
-0.000060
-0.000034
-0.000076
-0.000076
-0.000105
-0.000047
-0.000113
-0.000113
-0.000100
-0.000123
-0.000126
-0.000063
-0.000116
-0.000110
-0.000131
-0.000100
-0.000126
-0.000126
-0.000089
-0.000060
-0.000079
-0.000013
-0.000011
0.000003
0.000034
0.000073
0.000029
0.000042
0.000021
0.000024
-0.000018
0.000003
-0.000003
-0.000013
-0.000018
-0.000008
-0.000029
-0.000005
-0.000026
0.000034
-0.000032
-0.000026
-0.000045
-0.000047
-0.000084
-0.000084
-0.000097
-0.000113
-0.000092
-0.000089
-0.000126
-0.000108
-0.000126
-0.000126
-0.000095
-0.000079
-0.000097
-0.000092
-0.000097
-0.000105
-0.000113
-0.000066
-0.000047
-0.000060
-0.000102
-0.000076
-0.000129
-0.000152
-0.000144
-0.000129
-0.000142
-0.000116
-0.000110
-0.000079
-0.000060
-0.000026
-0.000047
-0.000050
-0.000071
-0.000074
-0.000079
-0.000029
0.000003
0.000005
-0.000037
0.000008
-0.000050
-0.000079
-0.000037
-0.000037
-0.000045
-0.000060
-0.000108
-0.000081
-0.000123
-0.000123
-0.000105
-0.000050
-0.000047
-0.000039
-0.000058
-0.000034
-0.000039
-0.000039
-0.000037
0.000008
-0.000039
-0.000029
