Start time = 18:17:39.007140
End time = 18:17:48.960310
laser_energy = 6.010
channel_1_dial = 850
channel_2_dial = 850
channel_3_dial = 850
channel_4_dial = 850
NG-1-LII = 0
NG-3-15399 = 0
NG-4-LII = 0
NG-4-15399 = 0
NG-5-LII = 0
NG-5-15399 = 0
NG-9-LII = 0
NG-9-15399 = 0
NG-10-01 = 0
NG-11-15399 = 0
NG-12-15399 = 0
NG-4A-2001 = 0
NG-4B-2001 = 0
NG-5A-2001 = 0
NG-3-2001 = 0
NG-5B-2001 = 0
NG-1-2001 = 0
NG-9-2001 = 0
NG-10-2001 = 0
NG-11-2001 = 0
NG-12-2001 = 0
AND-200SN09 = 0
AND-100SN09 = 0
AND-050SN09 = 0
AND-030SN09 = 0
AND-015SN05 = 0
PMT#1Voltage = 0
PMT#2Voltage = 0
t0(sec) = 0.000000E+0
dt(sec) = 4.000000E-10
F1:INSP "
DESCRIPTOR_NAME    : WAVEDESC           
TEMPLATE_NAME      : LECROY_2_3         
COMM_TYPE          : word               
COMM_ORDER         : HIFIRST            
WAVE_DESCRIPTOR    : 346                
USER_TEXT          : 0                  
RES_DESC1          : 0                  
TRIGTIME_ARRAY     : 0                  
RIS_TIME_ARRAY     : 0                  
RES_ARRAY1         : 0                  
WAVE_ARRAY_1       : 10002              
WAVE_ARRAY_2       : 0                  
RES_ARRAY2         : 0                  
RES_ARRAY3         : 0                  
INSTRUMENT_NAME    : LECROYHDO6104      
INSTRUMENT_NUMBER  : 6308               
TRACE_LABEL        :                    
RESERVED1          : 5001               
RESERVED2          : 0                  
WAVE_ARRAY_COUNT   : 5001               
PNTS_PER_SCREEN    : 5000               
FIRST_VALID_PNT    : 0                  
LAST_VALID_PNT     : 5000               
FIRST_POINT        : 0                  
SPARSING_FACTOR    : 1                  
SEGMENT_INDEX      : 0                  
SUBARRAY_COUNT     : 1                  
SWEEPS_PER_ACQ     : 200                
POINTS_PER_PAIR    : 0                  
PAIR_OFFSET        : 0                  
VERTICAL_GAIN      : 2.6238e-006        
VERTICAL_OFFSET    : 6.5501e-002        
MAX_VALUE          : 3.0816e+004        
MIN_VALUE          : 1.3388e+004        
NOMINAL_BITS       : 16                 
NOM_SUBARRAY_COUNT : 1                  
HORIZ_INTERVAL     : 4.0000e-010        
HORIZ_OFFSET       : -2.00000000e-007   
PIXEL_OFFSET       : -2.00000000e-007   
VERTUNIT           : Unit Name = V
HORUNIT            : Unit Name = S
HORIZ_UNCERTAINTY  : 1.0000e-012        
TRIGGER_TIME       : Date = APR 17, 2024, Time = 19:17:34.858259610
ACQ_DURATION       : 1.0049e+001        
RECORD_TYPE        : single_sweep       
PROCESSING_DONE    : no_processing      
RESERVED5          : 0                  
RIS_SWEEPS         : 1                  
TIMEBASE           : 200_ns/div         
VERT_COUPLING      : DC_50_Ohms         
PROBE_ATT          : 1.0000e+000        
FIXED_VERT_GAIN    : 5_mV/div           
BANDWIDTH_LIMIT    : off                
VERTICAL_VERNIER   : 1.1600e+000        
ACQ_VERT_OFFSET    : 0.0000e+000        
WAVE_SOURCE        : UNKNOWN            
"
0.000231
0.000241
0.000226
0.000202
0.000226
0.000239
0.000189
0.000199
0.000223
0.000228
0.000202
0.000210
0.000218
0.000210
0.000181
0.000218
0.000228
0.000247
0.000194
0.000207
0.000226
0.000220
0.000207
0.000220
0.000249
0.000270
0.000202
0.000215
0.000239
0.000236
0.000194
0.000207
0.000202
0.000191
0.000160
0.000168
0.000186
0.000205
0.000165
0.000149
0.000202
0.000205
0.000149
0.000218
0.000241
0.000226
0.000212
0.000262
0.000236
0.000260
0.000218
0.000239
0.000233
0.000210
0.000191
0.000202
0.000194
0.000199
0.000207
0.000197
0.000189
0.000226
0.000210
0.000223
0.000205
0.000241
0.000205
0.000226
0.000210
0.000228
0.000202
0.000218
0.000202
0.000194
0.000170
0.000191
0.000186
0.000194
0.000207
0.000202
0.000186
0.000223
0.000184
0.000202
0.000197
0.000205
0.000207
0.000199
0.000168
0.000207
0.000210
0.000218
0.000202
0.000231
0.000205
0.000226
0.000210
0.000244
0.000226
0.000207
0.000218
0.000233
0.000207
0.000197
0.000215
0.000231
0.000199
0.000212
0.000178
0.000223
0.000178
0.000202
0.000210
0.000233
0.000220
0.000228
0.000231
0.000252
0.000241
0.000239
0.000231
0.000257
0.000205
0.000226
0.000233
0.000241
0.000210
0.000194
0.000199
0.000231
0.000186
0.000173
0.000189
0.000205
0.000160
0.000181
0.000176
0.000194
0.000181
0.000181
0.000212
0.000254
0.000215
0.000252
0.000247
0.000241
0.000220
0.000207
0.000223
0.000228
0.000212
0.000202
0.000189
0.000218
0.000189
0.000194
0.000205
0.000220
0.000215
0.000202
0.000207
0.000241
0.000194
0.000220
0.000210
0.000205
0.000218
0.000191
0.000170
0.000226
0.000199
0.000207
0.000220
0.000215
0.000218
0.000228
0.000215
0.000254
0.000207
0.000228
0.000220
0.000202
0.000194
0.000220
0.000218
0.000223
0.000226
0.000239
0.000218
0.000254
0.000215
0.000244
0.000260
0.000247
0.000210
0.000236
0.000212
0.000236
0.000226
0.000197
0.000233
0.000226
0.000199
0.000207
0.000220
0.000223
0.000189
0.000202
0.000186
0.000207
0.000199
0.000207
0.000205
0.000239
0.000220
0.000218
0.000233
0.000241
0.000218
0.000228
0.000241
0.000228
0.000189
0.000210
0.000218
0.000220
0.000199
0.000218
0.000228
0.000231
0.000210
0.000205
0.000207
0.000239
0.000226
0.000215
0.000228
0.000223
0.000197
0.000215
0.000220
0.000215
0.000170
0.000173
0.000218
0.000202
0.000197
0.000239
0.000218
0.000205
0.000173
0.000157
0.000157
0.000170
0.000139
0.000168
0.000170
0.000191
0.000205
0.000197
0.000202
0.000233
0.000197
0.000220
0.000207
0.000210
0.000207
0.000215
0.000176
0.000176
0.000186
0.000176
0.000199
0.000218
0.000210
0.000239
0.000205
0.000210
0.000228
0.000218
0.000191
0.000265
0.000220
0.000241
0.000260
0.000218
0.000228
0.000239
0.000207
0.000228
0.000228
0.000205
0.000228
0.000210
0.000191
0.000218
0.000189
0.000199
0.000186
0.000189
0.000186
0.000215
0.000186
0.000186
0.000218
0.000233
0.000239
0.000241
0.000223
0.000228
0.000210
0.000184
0.000207
0.000197
0.000163
0.000178
0.000186
0.000199
0.000176
0.000186
0.000168
0.000212
0.000199
0.000212
0.000210
0.000226
0.000215
0.000218
0.000236
0.000252
0.000197
0.000205
0.000220
0.000212
0.000197
0.000197
0.000210
0.000197
0.000178
0.000173
0.000202
0.000226
0.000199
0.000226
0.000223
0.000215
0.000202
0.000207
0.000197
0.000233
0.000210
0.000197
0.000186
0.000218
0.000197
0.000218
0.000210
0.000239
0.000215
0.000173
0.000194
0.000223
0.000173
0.000210
0.000218
0.000197
0.000205
0.000210
0.000215
0.000244
0.000205
0.000197
0.000228
0.000210
0.000199
0.000212
0.000226
0.000223
0.000212
0.000197
0.000223
0.000244
0.000202
0.000191
0.000220
0.000184
0.000155
0.000160
0.000176
0.000189
0.000184
0.000178
0.000194
0.000205
0.000170
0.000194
0.000194
0.000202
0.000186
0.000202
0.000223
0.000281
0.000212
0.000247
0.000228
0.000220
0.000220
0.000252
0.000249
0.000244
0.000205
0.000181
0.000170
0.000152
0.000168
0.000228
0.000218
0.000239
0.000231
0.000197
0.000226
0.000231
0.000189
0.000189
0.000226
0.000202
0.000218
0.000257
0.000247
0.000262
0.000199
0.000220
0.000233
0.000223
0.000215
0.000286
0.000273
0.000260
0.000223
0.000181
0.000131
0.000168
0.000144
0.000170
0.000157
0.000189
0.000226
0.000270
0.000275
0.000283
0.000273
0.000226
0.000184
0.000144
0.000144
0.000152
0.000176
0.000223
0.000207
0.000218
0.000149
0.000218
0.000236
0.000220
0.000252
0.000275
0.000244
0.000205
0.000160
0.000178
0.000144
0.000168
0.000178
0.000239
0.000231
0.000191
0.000202
0.000205
0.000210
0.000205
0.000184
0.000223
0.000218
0.000194
0.000202
0.000223
0.000239
0.000231
0.000215
0.000278
0.000291
0.000268
0.000275
0.000241
0.000152
0.000131
0.000139
0.000149
0.000147
0.000134
0.000160
0.000215
0.000152
0.000108
0.000157
0.000215
0.000215
0.000320
0.000394
0.000414
0.000391
0.000373
0.000349
0.000317
0.000215
0.000189
0.000136
0.000121
0.000031
0.000055
0.000037
0.000089
0.000108
0.000152
0.000191
0.000254
0.000241
0.000312
0.000325
0.000310
0.000265
0.000239
0.000262
0.000197
0.000144
0.000184
0.000207
0.000241
0.000223
0.000241
0.000231
0.000244
0.000307
0.000328
0.000349
0.000352
0.000294
0.000296
0.000257
0.000254
0.000189
0.000165
0.000134
0.000073
0.000039
0.000005
0.000037
0.000037
-0.000003
-0.000074
-0.000260
-0.000454
-0.000829
-0.001443
-0.002107
-0.002891
-0.003778
-0.004815
-0.005956
-0.006985
-0.007908
-0.008761
-0.009475
-0.009986
-0.010112
-0.010225
-0.010372
-0.010419
-0.010398
-0.010298
-0.010191
-0.009950
-0.009653
-0.009359
-0.009063
-0.008861
-0.008874
-0.008900
-0.008748
-0.008596
-0.008430
-0.008310
-0.007927
-0.007546
-0.007145
-0.006720
-0.006371
-0.006224
-0.006213
-0.006226
-0.006203
-0.005909
-0.005681
-0.005513
-0.005379
-0.005227
-0.005111
-0.005001
-0.004928
-0.004899
-0.004928
-0.004878
-0.004870
-0.004878
-0.004922
-0.005025
-0.005074
-0.005098
-0.005143
-0.005148
-0.005156
-0.005127
-0.005043
-0.005046
-0.005082
-0.005043
-0.005025
-0.004998
-0.004991
-0.004959
-0.004956
-0.004883
-0.004893
-0.004901
-0.004880
-0.004788
-0.004676
-0.004563
-0.004503
-0.004416
-0.004337
-0.004232
-0.004167
-0.003970
-0.003847
-0.003752
-0.003652
-0.003603
-0.003540
-0.003492
-0.003505
-0.003600
-0.003645
-0.003618
-0.003605
-0.003545
-0.003461
-0.003387
-0.003440
-0.003448
-0.003356
-0.003275
-0.003159
-0.003094
-0.002954
-0.002905
-0.002978
-0.002910
-0.002839
-0.002789
-0.002829
-0.002839
-0.002910
-0.002965
-0.003059
-0.002994
-0.002912
-0.002836
-0.002857
-0.002889
-0.002975
-0.003007
-0.002978
-0.002897
-0.002815
-0.002739
-0.002739
-0.002647
-0.002574
-0.002543
-0.002558
-0.002592
-0.002577
-0.002655
-0.002784
-0.002821
-0.002787
-0.002815
-0.002855
-0.002771
-0.002721
-0.002595
-0.002480
-0.002403
-0.002335
-0.002317
-0.002327
-0.002361
-0.002348
-0.002380
-0.002372
-0.002293
-0.002186
-0.002094
-0.002034
-0.001918
-0.001905
-0.001913
-0.001976
-0.001910
-0.001934
-0.001900
-0.001902
-0.002005
-0.002086
-0.002186
-0.002354
-0.002501
-0.002587
-0.002577
-0.002569
-0.002464
-0.002377
-0.002228
-0.002115
-0.002083
-0.001981
-0.001897
-0.001879
-0.001826
-0.001813
-0.001805
-0.001834
-0.001866
-0.001871
-0.001876
-0.001926
-0.001879
-0.001766
-0.001727
-0.001711
-0.001669
-0.001674
-0.001769
-0.001902
-0.001994
-0.002007
-0.002010
-0.001999
-0.002007
-0.002031
-0.002023
-0.001965
-0.001921
-0.001855
-0.001682
-0.001569
-0.001543
-0.001530
-0.001451
-0.001501
-0.001545
-0.001603
-0.001640
-0.001721
-0.001805
-0.001847
-0.001863
-0.001934
-0.001892
-0.001897
-0.001845
-0.001774
-0.001666
-0.001616
-0.001530
-0.001469
-0.001438
-0.001388
-0.001359
-0.001364
-0.001364
-0.001448
-0.001545
-0.001595
-0.001664
-0.001671
-0.001656
-0.001669
-0.001619
-0.001561
-0.001522
-0.001503
-0.001459
-0.001451
-0.001388
-0.001406
-0.001401
-0.001425
-0.001422
-0.001490
-0.001425
-0.001399
-0.001322
-0.001275
-0.001220
-0.001252
-0.001304
-0.001341
-0.001315
-0.001338
-0.001375
-0.001427
-0.001427
-0.001438
-0.001427
-0.001454
-0.001501
-0.001601
-0.001640
-0.001666
-0.001577
-0.001459
-0.001354
-0.001273
-0.001254
-0.001238
-0.001270
-0.001275
-0.001254
-0.001236
-0.001265
-0.001294
-0.001307
-0.001343
-0.001294
-0.001257
-0.001207
-0.001102
-0.001042
-0.001008
-0.000968
-0.000937
-0.000892
-0.000887
-0.000850
-0.000816
-0.000782
-0.000800
-0.000832
-0.000911
-0.000994
-0.001068
-0.001157
-0.001220
-0.001273
-0.001359
-0.001459
-0.001498
-0.001454
-0.001380
-0.001357
-0.001296
-0.001178
-0.001120
-0.001086
-0.001026
-0.000994
-0.001084
-0.001057
-0.001089
-0.001071
-0.001065
-0.001089
-0.001105
-0.001102
-0.001152
-0.001199
-0.001157
-0.001136
-0.001134
-0.001107
-0.001105
-0.001031
-0.001078
-0.001071
-0.001078
-0.001099
-0.001113
-0.001068
-0.001026
-0.001002
-0.000973
-0.000887
-0.000861
-0.000845
-0.000855
-0.000848
-0.000829
-0.000858
-0.000882
-0.000905
-0.000942
-0.000984
-0.001110
-0.001152
-0.001155
-0.001118
-0.001194
-0.001113
-0.001005
-0.000918
-0.000887
-0.000842
-0.000819
-0.000853
-0.000908
-0.000934
-0.001031
-0.001071
-0.001165
-0.001176
-0.001155
-0.001165
-0.001223
-0.001207
-0.001165
-0.001170
-0.001189
-0.001084
-0.001018
-0.000960
-0.000921
-0.000829
-0.000800
-0.000750
-0.000737
-0.000740
-0.000745
-0.000727
-0.000750
-0.000806
-0.000829
-0.000819
-0.000848
-0.000869
-0.000858
-0.000850
-0.000966
-0.001039
-0.001081
-0.001065
-0.001105
-0.001026
-0.000987
-0.000924
-0.000908
-0.000850
-0.000813
-0.000803
-0.000879
-0.000882
-0.000890
-0.000803
-0.000756
-0.000722
-0.000659
-0.000640
-0.000701
-0.000769
-0.000819
-0.000876
-0.000929
-0.001029
-0.001105
-0.001078
-0.001057
-0.000926
-0.000832
-0.000729
-0.000674
-0.000669
-0.000685
-0.000609
-0.000564
-0.000572
-0.000604
-0.000577
-0.000635
-0.000669
-0.000719
-0.000753
-0.000834
-0.000869
-0.000890
-0.000908
-0.000882
-0.000869
-0.000840
-0.000769
-0.000743
-0.000708
-0.000695
-0.000640
-0.000622
-0.000627
-0.000614
-0.000575
-0.000643
-0.000693
-0.000706
-0.000785
-0.000882
-0.000874
-0.000911
-0.000924
-0.000874
-0.000853
-0.000871
-0.000869
-0.000853
-0.000811
-0.000753
-0.000687
-0.000617
-0.000548
-0.000506
-0.000457
-0.000530
-0.000551
-0.000533
-0.000546
-0.000567
-0.000538
-0.000522
-0.000499
-0.000512
-0.000509
-0.000583
-0.000593
-0.000643
-0.000761
-0.000816
-0.000819
-0.000806
-0.000816
-0.000803
-0.000693
-0.000659
-0.000590
-0.000512
-0.000464
-0.000470
-0.000493
-0.000512
-0.000538
-0.000564
-0.000609
-0.000698
-0.000727
-0.000777
-0.000769
-0.000790
-0.000753
-0.000735
-0.000743
-0.000779
-0.000711
-0.000729
-0.000758
-0.000740
-0.000667
-0.000601
-0.000504
-0.000425
-0.000430
-0.000504
-0.000577
-0.000659
-0.000706
-0.000682
-0.000682
-0.000653
-0.000619
-0.000627
-0.000638
-0.000548
-0.000493
-0.000530
-0.000572
-0.000577
-0.000685
-0.000737
-0.000653
-0.000583
-0.000506
-0.000533
-0.000525
-0.000520
-0.000493
-0.000520
-0.000483
-0.000485
-0.000527
-0.000572
-0.000604
-0.000672
-0.000632
-0.000680
-0.000677
-0.000667
-0.000669
-0.000677
-0.000656
-0.000638
-0.000651
-0.000661
-0.000625
-0.000643
-0.000596
-0.000567
-0.000506
-0.000480
-0.000459
-0.000467
-0.000430
-0.000399
-0.000404
-0.000462
-0.000454
-0.000493
-0.000535
-0.000535
-0.000527
-0.000538
-0.000554
-0.000559
-0.000491
-0.000488
-0.000443
-0.000430
-0.000415
-0.000454
-0.000480
-0.000491
-0.000485
-0.000538
-0.000512
-0.000538
-0.000614
-0.000611
-0.000580
-0.000617
-0.000646
-0.000619
-0.000614
-0.000622
-0.000601
-0.000635
-0.000593
-0.000583
-0.000522
-0.000506
-0.000417
-0.000381
-0.000357
-0.000354
-0.000315
-0.000331
-0.000339
-0.000370
-0.000373
-0.000428
-0.000472
-0.000462
-0.000483
-0.000522
-0.000559
-0.000583
-0.000564
-0.000554
-0.000556
-0.000520
-0.000514
-0.000551
-0.000572
-0.000569
-0.000562
-0.000585
-0.000625
-0.000596
-0.000567
-0.000533
-0.000449
-0.000360
-0.000370
-0.000373
-0.000346
-0.000396
-0.000399
-0.000472
-0.000467
-0.000462
-0.000499
-0.000480
-0.000446
-0.000464
-0.000443
-0.000441
-0.000425
-0.000402
-0.000346
-0.000370
-0.000344
-0.000331
-0.000323
-0.000341
-0.000362
-0.000394
-0.000464
-0.000533
-0.000546
-0.000530
-0.000501
-0.000533
-0.000499
-0.000485
-0.000422
-0.000425
-0.000402
-0.000318
-0.000276
-0.000244
-0.000223
-0.000192
-0.000257
-0.000312
-0.000381
-0.000441
-0.000488
-0.000556
-0.000520
-0.000514
-0.000488
-0.000493
-0.000491
-0.000485
-0.000496
-0.000522
-0.000504
-0.000509
-0.000470
-0.000451
-0.000409
-0.000362
-0.000386
-0.000404
-0.000399
-0.000394
-0.000386
-0.000404
-0.000352
-0.000336
-0.000315
-0.000339
-0.000396
-0.000391
-0.000425
-0.000441
-0.000441
-0.000402
-0.000383
-0.000396
-0.000352
-0.000318
-0.000325
-0.000386
-0.000391
-0.000381
-0.000367
-0.000331
-0.000349
-0.000286
-0.000339
-0.000394
-0.000367
-0.000407
-0.000412
-0.000475
-0.000496
-0.000543
-0.000562
-0.000554
-0.000535
-0.000501
-0.000480
-0.000459
-0.000391
-0.000373
-0.000289
-0.000278
-0.000223
-0.000205
-0.000215
-0.000220
-0.000184
-0.000215
-0.000223
-0.000239
-0.000281
-0.000328
-0.000367
-0.000441
-0.000483
-0.000496
-0.000491
-0.000506
-0.000417
-0.000388
-0.000315
-0.000297
-0.000278
-0.000249
-0.000213
-0.000276
-0.000304
-0.000315
-0.000312
-0.000318
-0.000307
-0.000323
-0.000302
-0.000349
-0.000375
-0.000394
-0.000346
-0.000367
-0.000336
-0.000331
-0.000297
-0.000336
-0.000373
-0.000354
-0.000333
-0.000339
-0.000310
-0.000304
-0.000294
-0.000352
-0.000373
-0.000402
-0.000378
-0.000412
-0.000422
-0.000415
-0.000422
-0.000446
-0.000443
-0.000467
-0.000443
-0.000430
-0.000383
-0.000360
-0.000344
-0.000365
-0.000336
-0.000273
-0.000265
-0.000302
-0.000273
-0.000249
-0.000247
-0.000286
-0.000283
-0.000304
-0.000323
-0.000360
-0.000344
-0.000373
-0.000388
-0.000441
-0.000512
-0.000501
-0.000496
-0.000522
-0.000433
-0.000357
-0.000357
-0.000310
-0.000304
-0.000297
-0.000239
-0.000302
-0.000291
-0.000291
-0.000297
-0.000252
-0.000247
-0.000226
-0.000241
-0.000273
-0.000297
-0.000325
-0.000375
-0.000407
-0.000428
-0.000443
-0.000373
-0.000373
-0.000344
-0.000273
-0.000228
-0.000171
-0.000155
-0.000129
-0.000105
-0.000176
-0.000189
-0.000234
-0.000215
-0.000239
-0.000205
-0.000241
-0.000276
-0.000325
-0.000367
-0.000362
-0.000378
-0.000365
-0.000349
-0.000370
-0.000333
-0.000365
-0.000399
-0.000320
-0.000294
-0.000291
-0.000249
-0.000244
-0.000144
-0.000184
-0.000231
-0.000236
-0.000213
-0.000283
-0.000336
-0.000354
-0.000383
-0.000346
-0.000328
-0.000304
-0.000278
-0.000320
-0.000396
-0.000407
-0.000375
-0.000370
-0.000315
-0.000344
-0.000278
-0.000297
-0.000257
-0.000226
-0.000152
-0.000150
-0.000118
-0.000095
-0.000097
-0.000139
-0.000155
-0.000189
-0.000234
-0.000307
-0.000341
-0.000349
-0.000375
-0.000349
-0.000294
-0.000289
-0.000307
-0.000339
-0.000299
-0.000239
-0.000194
-0.000184
-0.000121
-0.000144
-0.000189
-0.000189
-0.000194
-0.000210
-0.000213
-0.000239
-0.000262
-0.000255
-0.000257
-0.000255
-0.000215
-0.000192
-0.000220
-0.000192
-0.000163
-0.000181
-0.000189
-0.000207
-0.000163
-0.000131
-0.000152
-0.000123
-0.000118
-0.000142
-0.000157
-0.000192
-0.000189
-0.000168
-0.000186
-0.000202
-0.000202
-0.000213
-0.000247
-0.000231
-0.000255
-0.000236
-0.000160
-0.000192
-0.000131
-0.000121
-0.000160
-0.000150
-0.000089
-0.000089
-0.000074
-0.000063
-0.000105
-0.000126
-0.000131
-0.000160
-0.000168
-0.000215
-0.000241
-0.000249
-0.000318
-0.000281
-0.000257
-0.000270
-0.000273
-0.000236
-0.000252
-0.000268
-0.000286
-0.000312
-0.000260
-0.000262
-0.000255
-0.000207
-0.000163
-0.000155
-0.000121
-0.000105
-0.000131
-0.000199
-0.000226
-0.000247
-0.000234
-0.000265
-0.000260
-0.000255
-0.000220
-0.000210
-0.000239
-0.000260
-0.000202
-0.000192
-0.000181
-0.000136
-0.000116
-0.000113
-0.000147
-0.000105
-0.000097
-0.000123
-0.000136
-0.000105
-0.000092
-0.000123
-0.000081
-0.000066
-0.000071
-0.000084
-0.000084
-0.000123
-0.000097
-0.000131
-0.000123
-0.000102
-0.000105
-0.000123
-0.000121
-0.000136
-0.000171
-0.000207
-0.000205
-0.000194
-0.000223
-0.000231
-0.000192
-0.000129
-0.000100
-0.000165
-0.000144
-0.000197
-0.000178
-0.000192
-0.000178
-0.000152
-0.000081
-0.000136
-0.000205
-0.000194
-0.000176
-0.000192
-0.000178
-0.000171
-0.000150
-0.000152
-0.000134
-0.000116
-0.000121
-0.000205
-0.000192
-0.000226
-0.000210
-0.000202
-0.000155
-0.000100
-0.000105
-0.000110
-0.000139
-0.000165
-0.000197
-0.000226
-0.000289
-0.000349
-0.000336
-0.000367
-0.000333
-0.000331
-0.000244
-0.000168
-0.000157
-0.000121
-0.000100
-0.000116
-0.000134
-0.000118
-0.000100
-0.000139
-0.000129
-0.000081
-0.000100
-0.000150
-0.000155
-0.000136
-0.000144
-0.000171
-0.000163
-0.000150
-0.000126
-0.000160
-0.000157
-0.000165
-0.000168
-0.000181
-0.000165
-0.000108
-0.000095
-0.000110
-0.000139
-0.000181
-0.000150
-0.000181
-0.000168
-0.000142
-0.000136
-0.000199
-0.000252
-0.000241
-0.000286
-0.000283
-0.000291
-0.000228
-0.000207
-0.000228
-0.000197
-0.000163
-0.000131
-0.000181
-0.000197
-0.000157
-0.000147
-0.000189
-0.000220
-0.000236
-0.000241
-0.000244
-0.000168
-0.000152
-0.000129
-0.000131
-0.000155
-0.000100
-0.000087
-0.000055
-0.000060
-0.000066
-0.000087
-0.000081
-0.000074
-0.000079
-0.000089
-0.000123
-0.000129
-0.000152
-0.000116
-0.000126
-0.000121
-0.000102
-0.000105
-0.000084
-0.000081
-0.000081
-0.000045
-0.000055
-0.000105
-0.000087
-0.000097
-0.000129
-0.000155
-0.000165
-0.000147
-0.000157
-0.000171
-0.000136
-0.000116
-0.000095
-0.000157
-0.000192
-0.000197
-0.000189
-0.000218
-0.000199
