Start time = 18:13:32.337284
End time = 18:13:42.274384
laser_energy = 6.010
channel_1_dial = 850
channel_2_dial = 850
channel_3_dial = 850
channel_4_dial = 850
NG-1-LII = 0
NG-3-15399 = 0
NG-4-LII = 0
NG-4-15399 = 0
NG-5-LII = 0
NG-5-15399 = 0
NG-9-LII = 0
NG-9-15399 = 0
NG-10-01 = 0
NG-11-15399 = 0
NG-12-15399 = 0
NG-4A-2001 = 0
NG-4B-2001 = 0
NG-5A-2001 = 0
NG-3-2001 = 0
NG-5B-2001 = 0
NG-1-2001 = 0
NG-9-2001 = 0
NG-10-2001 = 0
NG-11-2001 = 0
NG-12-2001 = 0
AND-200SN09 = 0
AND-100SN09 = 0
AND-050SN09 = 0
AND-030SN09 = 0
AND-015SN05 = 0
PMT#1Voltage = 0
PMT#2Voltage = 0
t0(sec) = 0.000000E+0
dt(sec) = 4.000000E-10
F1:INSP "
DESCRIPTOR_NAME    : WAVEDESC           
TEMPLATE_NAME      : LECROY_2_3         
COMM_TYPE          : word               
COMM_ORDER         : HIFIRST            
WAVE_DESCRIPTOR    : 346                
USER_TEXT          : 0                  
RES_DESC1          : 0                  
TRIGTIME_ARRAY     : 0                  
RIS_TIME_ARRAY     : 0                  
RES_ARRAY1         : 0                  
WAVE_ARRAY_1       : 10002              
WAVE_ARRAY_2       : 0                  
RES_ARRAY2         : 0                  
RES_ARRAY3         : 0                  
INSTRUMENT_NAME    : LECROYHDO6104      
INSTRUMENT_NUMBER  : 6308               
TRACE_LABEL        :                    
RESERVED1          : 5001               
RESERVED2          : 0                  
WAVE_ARRAY_COUNT   : 5001               
PNTS_PER_SCREEN    : 5000               
FIRST_VALID_PNT    : 0                  
LAST_VALID_PNT     : 5000               
FIRST_POINT        : 0                  
SPARSING_FACTOR    : 1                  
SEGMENT_INDEX      : 0                  
SUBARRAY_COUNT     : 1                  
SWEEPS_PER_ACQ     : 200                
POINTS_PER_PAIR    : 0                  
PAIR_OFFSET        : 0                  
VERTICAL_GAIN      : 2.6238e-006        
VERTICAL_OFFSET    : 6.5501e-002        
MAX_VALUE          : 3.0816e+004        
MIN_VALUE          : 1.3388e+004        
NOMINAL_BITS       : 16                 
NOM_SUBARRAY_COUNT : 1                  
HORIZ_INTERVAL     : 4.0000e-010        
HORIZ_OFFSET       : -2.00000000e-007   
PIXEL_OFFSET       : -2.00000000e-007   
VERTUNIT           : Unit Name = V
HORUNIT            : Unit Name = S
HORIZ_UNCERTAINTY  : 1.0000e-012        
TRIGGER_TIME       : Date = APR 17, 2024, Time = 19:13:28.228644219
ACQ_DURATION       : 9.9991e+000        
RECORD_TYPE        : single_sweep       
PROCESSING_DONE    : no_processing      
RESERVED5          : 0                  
RIS_SWEEPS         : 1                  
TIMEBASE           : 200_ns/div         
VERT_COUPLING      : DC_50_Ohms         
PROBE_ATT          : 1.0000e+000        
FIXED_VERT_GAIN    : 5_mV/div           
BANDWIDTH_LIMIT    : off                
VERTICAL_VERNIER   : 1.1600e+000        
ACQ_VERT_OFFSET    : 0.0000e+000        
WAVE_SOURCE        : UNKNOWN            
"
0.000205
0.000189
0.000191
0.000218
0.000226
0.000202
0.000233
0.000212
0.000212
0.000199
0.000228
0.000244
0.000226
0.000207
0.000212
0.000249
0.000215
0.000223
0.000207
0.000231
0.000223
0.000199
0.000212
0.000236
0.000215
0.000210
0.000223
0.000218
0.000215
0.000236
0.000199
0.000220
0.000218
0.000207
0.000223
0.000223
0.000207
0.000233
0.000239
0.000215
0.000212
0.000226
0.000228
0.000233
0.000215
0.000226
0.000260
0.000223
0.000249
0.000247
0.000212
0.000228
0.000236
0.000223
0.000239
0.000233
0.000233
0.000226
0.000223
0.000207
0.000228
0.000228
0.000212
0.000205
0.000231
0.000231
0.000220
0.000199
0.000207
0.000220
0.000165
0.000170
0.000168
0.000173
0.000199
0.000184
0.000212
0.000207
0.000205
0.000184
0.000191
0.000223
0.000199
0.000197
0.000191
0.000191
0.000191
0.000181
0.000191
0.000207
0.000173
0.000220
0.000247
0.000252
0.000226
0.000215
0.000236
0.000252
0.000231
0.000233
0.000247
0.000212
0.000197
0.000207
0.000202
0.000218
0.000212
0.000218
0.000212
0.000199
0.000163
0.000197
0.000236
0.000215
0.000218
0.000244
0.000228
0.000223
0.000207
0.000215
0.000210
0.000191
0.000181
0.000205
0.000197
0.000241
0.000233
0.000210
0.000236
0.000223
0.000207
0.000207
0.000210
0.000189
0.000178
0.000218
0.000228
0.000218
0.000223
0.000239
0.000226
0.000247
0.000220
0.000241
0.000233
0.000207
0.000231
0.000199
0.000186
0.000218
0.000157
0.000184
0.000202
0.000173
0.000202
0.000212
0.000226
0.000212
0.000205
0.000231
0.000247
0.000223
0.000218
0.000231
0.000223
0.000231
0.000220
0.000207
0.000215
0.000236
0.000199
0.000189
0.000176
0.000160
0.000163
0.000168
0.000170
0.000184
0.000184
0.000189
0.000194
0.000239
0.000194
0.000223
0.000241
0.000268
0.000215
0.000257
0.000252
0.000257
0.000244
0.000233
0.000210
0.000223
0.000207
0.000210
0.000189
0.000199
0.000191
0.000223
0.000199
0.000197
0.000199
0.000186
0.000191
0.000202
0.000223
0.000205
0.000215
0.000218
0.000184
0.000207
0.000212
0.000223
0.000205
0.000247
0.000202
0.000207
0.000205
0.000210
0.000218
0.000202
0.000212
0.000199
0.000189
0.000189
0.000178
0.000199
0.000189
0.000226
0.000207
0.000202
0.000220
0.000202
0.000207
0.000226
0.000212
0.000220
0.000226
0.000252
0.000228
0.000257
0.000241
0.000215
0.000233
0.000231
0.000218
0.000239
0.000202
0.000223
0.000207
0.000186
0.000199
0.000223
0.000173
0.000233
0.000231
0.000218
0.000254
0.000231
0.000223
0.000241
0.000231
0.000239
0.000223
0.000239
0.000205
0.000205
0.000226
0.000231
0.000212
0.000223
0.000239
0.000202
0.000210
0.000249
0.000247
0.000239
0.000218
0.000220
0.000220
0.000236
0.000205
0.000210
0.000205
0.000236
0.000215
0.000226
0.000228
0.000247
0.000228
0.000228
0.000252
0.000249
0.000223
0.000239
0.000223
0.000210
0.000228
0.000228
0.000212
0.000197
0.000202
0.000226
0.000197
0.000218
0.000197
0.000205
0.000194
0.000220
0.000212
0.000228
0.000247
0.000218
0.000223
0.000233
0.000223
0.000207
0.000218
0.000223
0.000207
0.000236
0.000223
0.000236
0.000197
0.000215
0.000226
0.000252
0.000215
0.000210
0.000226
0.000218
0.000226
0.000226
0.000233
0.000220
0.000249
0.000202
0.000233
0.000239
0.000228
0.000236
0.000220
0.000228
0.000207
0.000205
0.000218
0.000228
0.000220
0.000205
0.000210
0.000223
0.000239
0.000233
0.000199
0.000207
0.000231
0.000184
0.000160
0.000199
0.000212
0.000223
0.000197
0.000205
0.000220
0.000212
0.000226
0.000199
0.000244
0.000220
0.000210
0.000228
0.000249
0.000223
0.000223
0.000254
0.000236
0.000247
0.000226
0.000260
0.000231
0.000231
0.000239
0.000244
0.000249
0.000212
0.000199
0.000231
0.000236
0.000218
0.000228
0.000226
0.000220
0.000226
0.000207
0.000236
0.000205
0.000189
0.000218
0.000233
0.000231
0.000223
0.000233
0.000218
0.000212
0.000239
0.000236
0.000257
0.000241
0.000220
0.000199
0.000207
0.000218
0.000228
0.000231
0.000257
0.000249
0.000189
0.000228
0.000226
0.000210
0.000191
0.000202
0.000199
0.000194
0.000205
0.000231
0.000241
0.000257
0.000247
0.000244
0.000223
0.000220
0.000228
0.000228
0.000275
0.000249
0.000207
0.000178
0.000149
0.000147
0.000149
0.000168
0.000189
0.000186
0.000205
0.000254
0.000270
0.000249
0.000262
0.000212
0.000181
0.000139
0.000160
0.000136
0.000160
0.000189
0.000176
0.000178
0.000173
0.000218
0.000252
0.000260
0.000294
0.000281
0.000283
0.000233
0.000155
0.000157
0.000155
0.000121
0.000173
0.000220
0.000218
0.000212
0.000205
0.000231
0.000249
0.000205
0.000218
0.000218
0.000218
0.000207
0.000205
0.000233
0.000241
0.000215
0.000223
0.000249
0.000247
0.000241
0.000226
0.000210
0.000157
0.000097
0.000092
0.000102
0.000134
0.000108
0.000160
0.000168
0.000115
0.000152
0.000144
0.000189
0.000252
0.000325
0.000409
0.000430
0.000435
0.000428
0.000365
0.000338
0.000265
0.000176
0.000126
0.000052
0.000034
-0.000016
0.000026
0.000052
0.000118
0.000186
0.000244
0.000278
0.000338
0.000370
0.000367
0.000315
0.000289
0.000244
0.000197
0.000186
0.000155
0.000142
0.000181
0.000197
0.000205
0.000186
0.000215
0.000220
0.000262
0.000344
0.000380
0.000325
0.000341
0.000338
0.000294
0.000247
0.000202
0.000168
0.000165
0.000131
0.000100
0.000073
0.000105
0.000149
0.000108
0.000005
-0.000199
-0.000572
-0.001246
-0.002278
-0.003639
-0.005319
-0.007292
-0.009509
-0.011820
-0.014169
-0.016386
-0.018466
-0.020335
-0.021772
-0.022859
-0.023646
-0.024139
-0.024459
-0.024611
-0.024540
-0.024341
-0.024163
-0.024223
-0.024307
-0.024239
-0.023992
-0.023787
-0.023370
-0.022746
-0.022292
-0.021788
-0.021187
-0.020691
-0.020227
-0.019639
-0.018870
-0.018044
-0.017317
-0.016664
-0.016042
-0.015522
-0.015166
-0.014987
-0.014701
-0.014289
-0.013909
-0.013460
-0.012870
-0.012342
-0.012106
-0.011975
-0.011692
-0.011348
-0.011267
-0.011206
-0.011070
-0.010941
-0.010873
-0.011010
-0.011117
-0.011235
-0.011421
-0.011621
-0.011865
-0.012041
-0.011991
-0.011786
-0.011503
-0.011332
-0.011196
-0.010941
-0.010655
-0.010600
-0.010532
-0.010445
-0.010445
-0.010361
-0.010157
-0.009839
-0.009640
-0.009493
-0.009273
-0.009023
-0.008853
-0.008627
-0.008318
-0.008058
-0.007843
-0.007701
-0.007572
-0.007525
-0.007376
-0.007297
-0.007171
-0.007019
-0.006874
-0.006623
-0.006460
-0.006344
-0.006176
-0.006027
-0.005982
-0.005938
-0.005872
-0.005744
-0.005623
-0.005576
-0.005465
-0.005413
-0.005471
-0.005439
-0.005355
-0.005334
-0.005277
-0.005290
-0.005290
-0.005277
-0.005237
-0.005158
-0.005051
-0.004941
-0.004878
-0.004854
-0.004807
-0.004768
-0.004699
-0.004621
-0.004565
-0.004539
-0.004571
-0.004600
-0.004573
-0.004552
-0.004445
-0.004290
-0.004198
-0.004049
-0.003907
-0.003896
-0.003847
-0.003768
-0.003705
-0.003624
-0.003589
-0.003597
-0.003516
-0.003498
-0.003456
-0.003290
-0.003222
-0.003112
-0.002999
-0.002852
-0.002781
-0.002700
-0.002611
-0.002503
-0.002451
-0.002453
-0.002445
-0.002480
-0.002532
-0.002582
-0.002742
-0.002850
-0.002928
-0.003028
-0.003028
-0.002923
-0.002881
-0.002855
-0.002794
-0.002700
-0.002634
-0.002487
-0.002414
-0.002320
-0.002356
-0.002411
-0.002464
-0.002464
-0.002403
-0.002346
-0.002309
-0.002215
-0.002152
-0.002157
-0.002131
-0.002086
-0.002057
-0.002120
-0.002138
-0.002136
-0.002034
-0.001926
-0.001852
-0.001831
-0.001818
-0.001792
-0.001766
-0.001758
-0.001763
-0.001698
-0.001685
-0.001695
-0.001719
-0.001658
-0.001590
-0.001551
-0.001448
-0.001404
-0.001385
-0.001322
-0.001354
-0.001412
-0.001595
-0.001674
-0.001734
-0.001818
-0.001879
-0.001808
-0.001745
-0.001700
-0.001637
-0.001551
-0.001459
-0.001414
-0.001286
-0.001207
-0.001220
-0.001259
-0.001288
-0.001291
-0.001283
-0.001307
-0.001391
-0.001454
-0.001454
-0.001464
-0.001459
-0.001396
-0.001317
-0.001228
-0.001207
-0.001115
-0.001050
-0.001034
-0.001029
-0.000981
-0.000979
-0.000966
-0.000908
-0.000890
-0.000916
-0.000981
-0.001010
-0.001018
-0.001078
-0.001018
-0.000960
-0.000892
-0.000905
-0.000929
-0.000960
-0.001044
-0.001055
-0.001097
-0.001144
-0.001139
-0.001102
-0.001089
-0.001026
-0.001000
-0.000994
-0.001029
-0.001071
-0.001047
-0.001034
-0.001023
-0.001002
-0.000989
-0.001050
-0.001050
-0.001076
-0.001102
-0.001081
-0.001084
-0.001005
-0.000945
-0.000869
-0.000821
-0.000845
-0.000811
-0.000745
-0.000732
-0.000701
-0.000601
-0.000559
-0.000564
-0.000509
-0.000504
-0.000548
-0.000606
-0.000690
-0.000774
-0.000850
-0.000945
-0.001015
-0.001065
-0.001092
-0.001136
-0.001120
-0.001047
-0.000924
-0.000798
-0.000708
-0.000543
-0.000449
-0.000412
-0.000378
-0.000349
-0.000360
-0.000415
-0.000467
-0.000562
-0.000622
-0.000640
-0.000651
-0.000711
-0.000677
-0.000669
-0.000724
-0.000682
-0.000661
-0.000682
-0.000648
-0.000614
-0.000596
-0.000556
-0.000493
-0.000459
-0.000438
-0.000402
-0.000365
-0.000328
-0.000357
-0.000370
-0.000391
-0.000480
-0.000493
-0.000583
-0.000672
-0.000690
-0.000743
-0.000711
-0.000703
-0.000669
-0.000632
-0.000567
-0.000538
-0.000472
-0.000402
-0.000357
-0.000315
-0.000260
-0.000252
-0.000244
-0.000283
-0.000325
-0.000346
-0.000417
-0.000464
-0.000530
-0.000543
-0.000604
-0.000630
-0.000609
-0.000585
-0.000533
-0.000485
-0.000412
-0.000391
-0.000373
-0.000428
-0.000402
-0.000402
-0.000412
-0.000433
-0.000404
-0.000344
-0.000323
-0.000304
-0.000260
-0.000244
-0.000239
-0.000291
-0.000307
-0.000354
-0.000420
-0.000506
-0.000501
-0.000475
-0.000472
-0.000412
-0.000354
-0.000283
-0.000281
-0.000257
-0.000197
-0.000192
-0.000207
-0.000220
-0.000231
-0.000215
-0.000294
-0.000357
-0.000365
-0.000391
-0.000441
-0.000459
-0.000428
-0.000430
-0.000446
-0.000422
-0.000404
-0.000388
-0.000357
-0.000310
-0.000202
-0.000160
-0.000126
-0.000110
-0.000084
-0.000105
-0.000121
-0.000168
-0.000184
-0.000226
-0.000268
-0.000265
-0.000318
-0.000354
-0.000365
-0.000378
-0.000417
-0.000415
-0.000396
-0.000402
-0.000360
-0.000299
-0.000244
-0.000194
-0.000160
-0.000126
-0.000134
-0.000163
-0.000134
-0.000165
-0.000186
-0.000168
-0.000165
-0.000199
-0.000192
-0.000178
-0.000239
-0.000268
-0.000241
-0.000249
-0.000265
-0.000265
-0.000205
-0.000194
-0.000155
-0.000142
-0.000118
-0.000087
-0.000105
-0.000063
-0.000081
-0.000116
-0.000055
-0.000087
-0.000084
-0.000076
-0.000071
-0.000123
-0.000102
-0.000157
-0.000197
-0.000215
-0.000247
-0.000265
-0.000281
-0.000276
-0.000252
-0.000265
-0.000223
-0.000144
-0.000129
-0.000084
-0.000047
-0.000063
-0.000074
-0.000039
-0.000060
-0.000071
-0.000089
-0.000152
-0.000220
-0.000231
-0.000257
-0.000304
-0.000291
-0.000286
-0.000323
-0.000325
-0.000299
-0.000278
-0.000260
-0.000255
-0.000192
-0.000144
-0.000129
-0.000095
-0.000079
-0.000074
-0.000087
-0.000116
-0.000123
-0.000134
-0.000136
-0.000173
-0.000186
-0.000226
-0.000220
-0.000262
-0.000205
-0.000150
-0.000126
-0.000097
-0.000037
-0.000032
-0.000089
-0.000100
-0.000076
-0.000063
-0.000037
-0.000018
-0.000050
-0.000042
-0.000068
-0.000071
-0.000089
-0.000121
-0.000147
-0.000176
-0.000202
-0.000231
-0.000283
-0.000291
-0.000276
-0.000331
-0.000320
-0.000268
-0.000241
-0.000173
-0.000126
-0.000087
-0.000011
0.000013
0.000042
0.000058
0.000058
0.000045
0.000005
-0.000021
-0.000050
-0.000097
-0.000142
-0.000129
-0.000123
-0.000171
-0.000165
-0.000142
-0.000147
-0.000131
-0.000110
-0.000074
-0.000039
-0.000029
-0.000003
-0.000016
0.000031
0.000026
0.000026
-0.000000
-0.000018
0.000005
-0.000042
-0.000029
-0.000037
-0.000084
-0.000092
-0.000129
-0.000147
-0.000194
-0.000173
-0.000157
-0.000160
-0.000134
-0.000084
-0.000063
-0.000047
0.000024
0.000016
0.000013
0.000029
0.000031
0.000018
0.000010
0.000024
0.000026
0.000013
-0.000024
-0.000063
-0.000055
-0.000074
-0.000108
-0.000108
-0.000081
-0.000058
-0.000042
-0.000029
0.000026
0.000031
0.000029
0.000055
0.000013
0.000016
0.000008
0.000010
0.000005
-0.000021
-0.000013
-0.000008
-0.000021
-0.000074
-0.000087
-0.000136
-0.000131
-0.000134
-0.000181
-0.000155
-0.000129
-0.000134
-0.000118
-0.000108
-0.000084
-0.000087
-0.000039
0.000010
0.000016
0.000018
0.000066
0.000071
0.000066
0.000008
0.000034
0.000005
-0.000039
-0.000079
-0.000071
-0.000047
-0.000026
-0.000005
-0.000039
-0.000003
0.000018
0.000026
0.000052
0.000052
0.000087
0.000097
0.000060
0.000105
0.000094
0.000060
0.000097
0.000092
0.000076
0.000047
0.000055
0.000037
-0.000000
-0.000005
-0.000021
-0.000005
-0.000037
-0.000032
-0.000011
0.000005
0.000005
-0.000021
-0.000005
0.000016
0.000013
0.000024
0.000076
0.000047
0.000047
0.000047
0.000008
0.000005
0.000029
0.000029
0.000031
-0.000005
-0.000008
-0.000058
-0.000063
-0.000050
-0.000042
-0.000029
-0.000003
0.000018
0.000071
0.000087
0.000136
0.000139
0.000123
0.000170
0.000170
0.000123
0.000108
0.000102
0.000055
0.000021
0.000003
-0.000011
-0.000074
-0.000081
-0.000113
-0.000147
-0.000144
-0.000126
-0.000121
-0.000095
-0.000042
-0.000013
0.000013
0.000073
0.000060
0.000031
0.000029
0.000024
-0.000037
-0.000026
0.000008
0.000016
-0.000021
0.000018
0.000005
-0.000000
-0.000087
-0.000037
-0.000047
-0.000045
-0.000013
0.000034
0.000063
0.000105
0.000142
0.000094
0.000139
0.000113
0.000060
0.000121
0.000097
0.000076
0.000081
0.000084
0.000066
0.000026
-0.000003
-0.000011
-0.000024
-0.000084
-0.000037
-0.000079
-0.000116
-0.000084
-0.000058
-0.000060
-0.000026
-0.000042
-0.000024
0.000031
0.000076
0.000121
0.000115
0.000100
0.000097
0.000045
0.000031
0.000066
0.000016
0.000016
0.000018
0.000031
-0.000005
0.000005
-0.000021
-0.000018
-0.000018
0.000016
0.000068
0.000102
0.000102
0.000123
0.000144
0.000155
0.000186
0.000152
0.000136
0.000123
0.000105
0.000071
0.000100
0.000097
0.000034
0.000055
0.000060
0.000031
-0.000000
0.000013
0.000010
-0.000011
0.000008
0.000003
0.000034
0.000052
0.000113
0.000100
0.000108
0.000181
0.000155
0.000139
0.000155
0.000152
0.000144
0.000131
0.000126
0.000108
0.000089
0.000081
0.000037
0.000042
0.000060
0.000068
0.000047
0.000060
0.000087
0.000071
0.000076
0.000102
0.000121
0.000102
0.000152
0.000194
0.000181
0.000189
0.000186
0.000139
0.000121
0.000115
0.000079
0.000037
0.000045
0.000029
-0.000018
-0.000013
0.000024
0.000005
-0.000005
0.000047
0.000087
0.000060
0.000115
0.000149
0.000129
0.000118
0.000058
0.000024
0.000016
0.000029
-0.000008
0.000003
0.000050
0.000052
0.000039
0.000060
0.000084
0.000068
0.000039
0.000110
0.000089
0.000042
0.000052
0.000029
0.000045
0.000068
0.000052
0.000060
0.000102
0.000123
0.000144
0.000123
0.000144
0.000149
0.000110
0.000089
0.000097
0.000089
0.000037
0.000016
0.000016
0.000003
-0.000000
0.000024
-0.000024
-0.000029
0.000008
0.000003
0.000055
0.000073
0.000068
0.000123
0.000157
0.000157
0.000155
0.000134
0.000089
0.000081
0.000039
0.000068
0.000071
0.000008
0.000003
-0.000029
-0.000053
-0.000018
-0.000021
-0.000003
-0.000000
-0.000005
0.000016
0.000005
0.000047
0.000066
0.000031
0.000071
0.000071
0.000108
0.000097
0.000136
0.000149
0.000105
0.000097
0.000094
0.000037
0.000018
0.000060
0.000029
0.000010
0.000010
0.000003
0.000016
0.000071
0.000079
0.000068
0.000079
0.000105
0.000113
0.000113
0.000168
0.000189
0.000121
0.000105
0.000121
0.000123
0.000084
0.000102
0.000105
0.000073
0.000084
0.000047
0.000042
0.000052
0.000050
0.000024
0.000003
0.000018
-0.000005
0.000016
0.000100
0.000139
0.000131
0.000118
0.000168
0.000155
0.000163
0.000157
0.000121
0.000102
0.000102
0.000092
0.000039
0.000089
0.000066
0.000050
0.000037
0.000087
0.000092
0.000058
0.000110
0.000157
0.000123
0.000108
0.000155
0.000149
0.000147
0.000184
0.000197
0.000152
0.000147
0.000115
0.000108
0.000087
0.000079
0.000055
0.000026
0.000066
0.000050
0.000045
0.000068
0.000084
0.000084
0.000100
0.000121
0.000118
0.000131
0.000134
0.000139
0.000126
0.000139
0.000134
0.000126
0.000129
0.000110
0.000089
0.000084
0.000060
0.000081
0.000050
0.000055
0.000068
0.000037
0.000060
0.000066
0.000094
0.000134
0.000126
0.000152
0.000136
0.000084
0.000045
0.000042
0.000066
0.000071
0.000094
0.000115
0.000115
0.000152
0.000155
0.000155
0.000160
0.000123
0.000102
0.000110
0.000100
0.000087
0.000066
0.000055
0.000073
0.000055
0.000089
0.000100
0.000115
0.000144
0.000142
0.000181
0.000181
0.000157
0.000155
0.000149
0.000163
0.000118
0.000118
0.000113
0.000084
0.000097
0.000052
0.000094
0.000092
0.000092
0.000136
0.000102
0.000113
0.000176
0.000157
0.000189
0.000212
0.000157
0.000168
0.000142
0.000144
0.000155
0.000123
0.000118
0.000094
0.000071
0.000060
0.000052
0.000052
0.000068
0.000089
0.000087
0.000092
0.000121
0.000121
0.000110
0.000134
0.000147
0.000097
0.000126
0.000113
0.000097
0.000105
0.000097
0.000123
0.000094
0.000108
0.000149
0.000105
0.000136
0.000165
0.000100
0.000118
0.000110
0.000102
0.000092
0.000089
0.000108
0.000102
0.000081
0.000105
0.000087
0.000066
0.000118
0.000089
0.000097
0.000087
0.000123
0.000121
0.000118
0.000121
0.000087
0.000105
0.000094
0.000100
0.000126
0.000144
0.000157
0.000121
0.000102
0.000136
0.000115
0.000126
0.000139
0.000144
0.000123
0.000115
0.000123
0.000129
0.000123
0.000113
0.000108
0.000076
0.000052
0.000055
0.000089
0.000060
0.000084
0.000081
0.000071
0.000092
0.000089
0.000087
0.000118
0.000110
0.000076
0.000105
0.000129
0.000129
0.000126
0.000121
0.000136
0.000100
0.000126
0.000139
0.000108
0.000139
0.000142
0.000105
0.000094
0.000113
0.000042
0.000042
0.000073
0.000066
0.000110
0.000097
0.000131
0.000134
0.000121
0.000136
0.000160
0.000163
0.000131
0.000131
0.000157
0.000126
0.000147
0.000152
0.000163
0.000155
0.000134
0.000152
0.000157
0.000147
0.000147
0.000136
0.000129
0.000113
0.000108
0.000084
