Start time = 18:27:08.771575
End time = 18:27:18.735990
laser_energy = 7.040
channel_1_dial = 850
channel_2_dial = 850
channel_3_dial = 850
channel_4_dial = 850
NG-1-LII = 0
NG-3-15399 = 0
NG-4-LII = 0
NG-4-15399 = 0
NG-5-LII = 0
NG-5-15399 = 0
NG-9-LII = 0
NG-9-15399 = 0
NG-10-01 = 0
NG-11-15399 = 0
NG-12-15399 = 0
NG-4A-2001 = 0
NG-4B-2001 = 0
NG-5A-2001 = 0
NG-3-2001 = 0
NG-5B-2001 = 0
NG-1-2001 = 0
NG-9-2001 = 0
NG-10-2001 = 0
NG-11-2001 = 0
NG-12-2001 = 0
AND-200SN09 = 0
AND-100SN09 = 0
AND-050SN09 = 0
AND-030SN09 = 0
AND-015SN05 = 0
PMT#1Voltage = 0
PMT#2Voltage = 0
t0(sec) = 0.000000E+0
dt(sec) = 4.000000E-10
F1:INSP "
DESCRIPTOR_NAME    : WAVEDESC           
TEMPLATE_NAME      : LECROY_2_3         
COMM_TYPE          : word               
COMM_ORDER         : HIFIRST            
WAVE_DESCRIPTOR    : 346                
USER_TEXT          : 0                  
RES_DESC1          : 0                  
TRIGTIME_ARRAY     : 0                  
RIS_TIME_ARRAY     : 0                  
RES_ARRAY1         : 0                  
WAVE_ARRAY_1       : 10002              
WAVE_ARRAY_2       : 0                  
RES_ARRAY2         : 0                  
RES_ARRAY3         : 0                  
INSTRUMENT_NAME    : LECROYHDO6104      
INSTRUMENT_NUMBER  : 6308               
TRACE_LABEL        :                    
RESERVED1          : 5001               
RESERVED2          : 0                  
WAVE_ARRAY_COUNT   : 5001               
PNTS_PER_SCREEN    : 5000               
FIRST_VALID_PNT    : 0                  
LAST_VALID_PNT     : 5000               
FIRST_POINT        : 0                  
SPARSING_FACTOR    : 1                  
SEGMENT_INDEX      : 0                  
SUBARRAY_COUNT     : 1                  
SWEEPS_PER_ACQ     : 200                
POINTS_PER_PAIR    : 0                  
PAIR_OFFSET        : 0                  
VERTICAL_GAIN      : 2.6238e-006        
VERTICAL_OFFSET    : 6.5501e-002        
MAX_VALUE          : 3.0816e+004        
MIN_VALUE          : 1.3388e+004        
NOMINAL_BITS       : 16                 
NOM_SUBARRAY_COUNT : 1                  
HORIZ_INTERVAL     : 4.0000e-010        
HORIZ_OFFSET       : -2.00000000e-007   
PIXEL_OFFSET       : -2.00000000e-007   
VERTUNIT           : Unit Name = V
HORUNIT            : Unit Name = S
HORIZ_UNCERTAINTY  : 1.0000e-012        
TRIGGER_TIME       : Date = APR 17, 2024, Time = 19:27: 4.624698730
ACQ_DURATION       : 1.0049e+001        
RECORD_TYPE        : single_sweep       
PROCESSING_DONE    : no_processing      
RESERVED5          : 0                  
RIS_SWEEPS         : 1                  
TIMEBASE           : 200_ns/div         
VERT_COUPLING      : DC_50_Ohms         
PROBE_ATT          : 1.0000e+000        
FIXED_VERT_GAIN    : 5_mV/div           
BANDWIDTH_LIMIT    : off                
VERTICAL_VERNIER   : 1.1600e+000        
ACQ_VERT_OFFSET    : 0.0000e+000        
WAVE_SOURCE        : UNKNOWN            
"
0.000189
0.000173
0.000199
0.000186
0.000176
0.000173
0.000176
0.000168
0.000165
0.000165
0.000149
0.000139
0.000129
0.000102
0.000129
0.000089
0.000105
0.000126
0.000121
0.000160
0.000160
0.000129
0.000163
0.000147
0.000173
0.000136
0.000168
0.000163
0.000170
0.000163
0.000176
0.000165
0.000157
0.000142
0.000121
0.000142
0.000134
0.000121
0.000102
0.000113
0.000123
0.000149
0.000139
0.000144
0.000165
0.000157
0.000163
0.000163
0.000152
0.000160
0.000157
0.000160
0.000189
0.000178
0.000163
0.000152
0.000152
0.000170
0.000123
0.000165
0.000176
0.000155
0.000160
0.000149
0.000123
0.000147
0.000129
0.000136
0.000160
0.000147
0.000149
0.000121
0.000144
0.000152
0.000131
0.000157
0.000189
0.000118
0.000149
0.000144
0.000155
0.000173
0.000157
0.000121
0.000129
0.000155
0.000121
0.000152
0.000134
0.000136
0.000147
0.000123
0.000155
0.000160
0.000155
0.000160
0.000194
0.000168
0.000191
0.000197
0.000205
0.000189
0.000181
0.000152
0.000144
0.000136
0.000136
0.000147
0.000136
0.000136
0.000136
0.000126
0.000144
0.000149
0.000155
0.000160
0.000173
0.000139
0.000160
0.000157
0.000136
0.000147
0.000152
0.000157
0.000178
0.000129
0.000136
0.000163
0.000144
0.000118
0.000157
0.000142
0.000155
0.000170
0.000157
0.000131
0.000142
0.000147
0.000144
0.000163
0.000157
0.000113
0.000118
0.000139
0.000110
0.000105
0.000160
0.000168
0.000160
0.000160
0.000160
0.000149
0.000160
0.000142
0.000149
0.000142
0.000194
0.000165
0.000160
0.000178
0.000155
0.000160
0.000152
0.000155
0.000168
0.000184
0.000170
0.000194
0.000184
0.000191
0.000168
0.000163
0.000152
0.000144
0.000115
0.000110
0.000129
0.000102
0.000113
0.000129
0.000149
0.000115
0.000131
0.000113
0.000136
0.000118
0.000136
0.000142
0.000165
0.000173
0.000163
0.000147
0.000144
0.000168
0.000142
0.000144
0.000144
0.000129
0.000152
0.000173
0.000152
0.000157
0.000170
0.000168
0.000165
0.000165
0.000136
0.000152
0.000134
0.000134
0.000178
0.000157
0.000157
0.000176
0.000168
0.000165
0.000160
0.000149
0.000149
0.000181
0.000152
0.000149
0.000115
0.000100
0.000118
0.000113
0.000136
0.000131
0.000139
0.000157
0.000163
0.000165
0.000165
0.000176
0.000163
0.000160
0.000168
0.000139
0.000147
0.000165
0.000139
0.000170
0.000184
0.000144
0.000173
0.000176
0.000155
0.000178
0.000134
0.000118
0.000110
0.000110
0.000147
0.000142
0.000142
0.000160
0.000170
0.000163
0.000178
0.000178
0.000168
0.000147
0.000136
0.000149
0.000149
0.000139
0.000157
0.000168
0.000142
0.000131
0.000147
0.000102
0.000123
0.000149
0.000115
0.000105
0.000139
0.000142
0.000131
0.000123
0.000129
0.000123
0.000155
0.000160
0.000173
0.000189
0.000178
0.000176
0.000184
0.000160
0.000210
0.000170
0.000131
0.000168
0.000152
0.000136
0.000147
0.000139
0.000123
0.000123
0.000118
0.000129
0.000129
0.000157
0.000139
0.000155
0.000186
0.000184
0.000197
0.000181
0.000207
0.000178
0.000168
0.000184
0.000194
0.000178
0.000191
0.000207
0.000168
0.000152
0.000123
0.000108
0.000144
0.000136
0.000139
0.000118
0.000131
0.000144
0.000163
0.000131
0.000139
0.000134
0.000134
0.000139
0.000163
0.000170
0.000184
0.000184
0.000191
0.000186
0.000165
0.000168
0.000157
0.000163
0.000163
0.000134
0.000129
0.000152
0.000149
0.000129
0.000144
0.000155
0.000131
0.000142
0.000170
0.000155
0.000184
0.000173
0.000186
0.000152
0.000186
0.000170
0.000197
0.000197
0.000186
0.000160
0.000157
0.000149
0.000136
0.000149
0.000131
0.000121
0.000139
0.000139
0.000139
0.000136
0.000136
0.000163
0.000142
0.000160
0.000189
0.000168
0.000157
0.000160
0.000155
0.000131
0.000160
0.000142
0.000168
0.000165
0.000181
0.000165
0.000142
0.000163
0.000144
0.000142
0.000157
0.000144
0.000147
0.000134
0.000160
0.000152
0.000136
0.000134
0.000136
0.000100
0.000149
0.000186
0.000181
0.000181
0.000173
0.000160
0.000157
0.000144
0.000155
0.000160
0.000165
0.000152
0.000152
0.000142
0.000168
0.000144
0.000149
0.000149
0.000123
0.000126
0.000129
0.000123
0.000149
0.000163
0.000176
0.000134
0.000129
0.000126
0.000147
0.000202
0.000231
0.000233
0.000226
0.000189
0.000121
0.000097
0.000079
0.000076
0.000105
0.000134
0.000129
0.000186
0.000212
0.000194
0.000199
0.000189
0.000160
0.000102
0.000092
0.000097
0.000165
0.000189
0.000165
0.000149
0.000173
0.000181
0.000210
0.000220
0.000265
0.000268
0.000262
0.000218
0.000144
0.000081
0.000084
0.000108
0.000123
0.000144
0.000131
0.000108
0.000121
0.000131
0.000118
0.000131
0.000142
0.000108
0.000136
0.000129
0.000165
0.000155
0.000163
0.000165
0.000168
0.000165
0.000178
0.000173
0.000191
0.000170
0.000134
0.000071
0.000055
0.000063
0.000060
0.000055
0.000066
0.000087
0.000060
0.000079
0.000081
0.000118
0.000205
0.000252
0.000307
0.000346
0.000383
0.000375
0.000275
0.000247
0.000194
0.000134
0.000094
0.000071
0.000024
-0.000013
-0.000005
-0.000005
0.000073
0.000115
0.000149
0.000178
0.000197
0.000231
0.000254
0.000207
0.000210
0.000181
0.000165
0.000123
0.000113
0.000115
0.000149
0.000157
0.000168
0.000152
0.000147
0.000149
0.000178
0.000262
0.000249
0.000233
0.000212
0.000249
0.000218
0.000191
0.000184
0.000147
0.000102
0.000047
-0.000005
-0.000045
-0.000003
-0.000026
-0.000068
-0.000194
-0.000464
-0.000869
-0.001598
-0.002661
-0.004064
-0.005754
-0.007583
-0.009635
-0.011689
-0.013720
-0.015656
-0.017467
-0.018933
-0.020211
-0.021295
-0.022145
-0.022725
-0.022995
-0.023087
-0.023066
-0.022769
-0.022266
-0.021833
-0.021248
-0.020586
-0.019891
-0.019267
-0.018847
-0.018511
-0.018020
-0.017538
-0.016963
-0.016331
-0.015664
-0.015197
-0.014772
-0.014279
-0.013646
-0.013109
-0.012684
-0.012487
-0.012329
-0.012398
-0.012361
-0.012203
-0.011839
-0.011435
-0.011122
-0.010771
-0.010540
-0.010354
-0.010209
-0.010062
-0.010062
-0.010010
-0.009892
-0.009889
-0.009942
-0.009973
-0.010115
-0.010369
-0.010474
-0.010477
-0.010529
-0.010514
-0.010519
-0.010537
-0.010629
-0.010700
-0.010684
-0.010556
-0.010438
-0.010293
-0.010136
-0.010094
-0.010012
-0.009860
-0.009745
-0.009611
-0.009485
-0.009312
-0.009173
-0.008979
-0.008761
-0.008559
-0.008375
-0.008202
-0.008092
-0.007963
-0.007774
-0.007669
-0.007494
-0.007360
-0.007365
-0.007410
-0.007504
-0.007496
-0.007357
-0.007205
-0.007090
-0.006995
-0.006914
-0.006888
-0.006835
-0.006704
-0.006552
-0.006402
-0.006365
-0.006274
-0.006174
-0.006232
-0.006316
-0.006316
-0.006302
-0.006394
-0.006339
-0.006226
-0.006179
-0.006045
-0.005959
-0.005985
-0.006064
-0.006064
-0.006053
-0.006153
-0.006058
-0.005904
-0.005849
-0.005791
-0.005704
-0.005578
-0.005513
-0.005468
-0.005402
-0.005332
-0.005277
-0.005179
-0.005132
-0.005148
-0.005151
-0.005098
-0.005067
-0.005103
-0.005164
-0.005216
-0.005174
-0.005101
-0.004975
-0.004836
-0.004665
-0.004482
-0.004345
-0.004182
-0.004080
-0.004054
-0.004085
-0.004083
-0.004135
-0.004196
-0.004156
-0.004127
-0.004269
-0.004371
-0.004353
-0.004335
-0.004308
-0.004224
-0.004258
-0.004398
-0.004523
-0.004584
-0.004634
-0.004636
-0.004607
-0.004523
-0.004442
-0.004358
-0.004232
-0.004190
-0.004201
-0.004096
-0.004046
-0.003999
-0.003925
-0.003902
-0.003980
-0.004007
-0.003967
-0.003881
-0.003805
-0.003757
-0.003721
-0.003702
-0.003797
-0.003852
-0.003833
-0.003736
-0.003616
-0.003479
-0.003448
-0.003424
-0.003432
-0.003416
-0.003390
-0.003343
-0.003282
-0.003188
-0.003141
-0.003094
-0.003138
-0.003191
-0.003219
-0.003261
-0.003366
-0.003471
-0.003519
-0.003532
-0.003495
-0.003477
-0.003456
-0.003382
-0.003251
-0.003238
-0.003214
-0.003162
-0.003159
-0.003044
-0.002989
-0.002962
-0.002975
-0.002954
-0.002918
-0.002899
-0.003002
-0.003080
-0.003185
-0.003259
-0.003372
-0.003385
-0.003277
-0.003204
-0.003172
-0.003031
-0.002899
-0.002842
-0.002873
-0.002776
-0.002668
-0.002603
-0.002537
-0.002564
-0.002642
-0.002705
-0.002789
-0.002789
-0.002771
-0.002682
-0.002629
-0.002619
-0.002687
-0.002745
-0.002705
-0.002734
-0.002752
-0.002773
-0.002781
-0.002802
-0.002750
-0.002713
-0.002758
-0.002818
-0.002787
-0.002705
-0.002687
-0.002629
-0.002503
-0.002411
-0.002388
-0.002385
-0.002417
-0.002537
-0.002655
-0.002771
-0.002766
-0.002831
-0.002831
-0.002773
-0.002750
-0.002692
-0.002564
-0.002435
-0.002346
-0.002296
-0.002306
-0.002278
-0.002304
-0.002272
-0.002194
-0.002144
-0.002138
-0.002159
-0.002225
-0.002375
-0.002430
-0.002506
-0.002650
-0.002750
-0.002789
-0.002760
-0.002708
-0.002676
-0.002592
-0.002522
-0.002438
-0.002354
-0.002249
-0.002194
-0.002078
-0.001989
-0.001944
-0.001884
-0.001873
-0.001971
-0.002005
-0.002026
-0.002123
-0.002138
-0.002154
-0.002243
-0.002301
-0.002335
-0.002393
-0.002427
-0.002438
-0.002398
-0.002364
-0.002312
-0.002183
-0.002054
-0.001968
-0.001855
-0.001782
-0.001826
-0.001824
-0.001797
-0.001813
-0.001884
-0.001994
-0.002065
-0.002091
-0.002125
-0.002125
-0.002133
-0.002212
-0.002212
-0.002257
-0.002312
-0.002346
-0.002396
-0.002361
-0.002283
-0.002083
-0.001918
-0.001795
-0.001719
-0.001711
-0.001740
-0.001776
-0.001742
-0.001727
-0.001803
-0.001834
-0.001913
-0.002010
-0.002083
-0.002102
-0.002123
-0.002157
-0.002215
-0.002215
-0.002110
-0.002015
-0.001915
-0.001850
-0.001745
-0.001732
-0.001666
-0.001640
-0.001669
-0.001661
-0.001740
-0.001776
-0.001855
-0.001926
-0.001992
-0.001999
-0.002047
-0.002073
-0.002096
-0.002115
-0.002123
-0.002005
-0.001963
-0.001850
-0.001808
-0.001782
-0.001729
-0.001671
-0.001690
-0.001598
-0.001640
-0.001740
-0.001779
-0.001821
-0.001873
-0.001881
-0.001902
-0.001871
-0.001855
-0.001810
-0.001792
-0.001758
-0.001776
-0.001771
-0.001803
-0.001863
-0.001923
-0.001931
-0.001965
-0.001897
-0.001847
-0.001763
-0.001650
-0.001627
-0.001740
-0.001740
-0.001779
-0.001826
-0.001826
-0.001847
-0.001779
-0.001810
-0.001847
-0.001834
-0.001824
-0.001821
-0.001845
-0.001808
-0.001716
-0.001656
-0.001611
-0.001585
-0.001477
-0.001364
-0.001343
-0.001322
-0.001315
-0.001357
-0.001393
-0.001433
-0.001420
-0.001420
-0.001438
-0.001425
-0.001441
-0.001506
-0.001582
-0.001643
-0.001766
-0.001795
-0.001789
-0.001810
-0.001761
-0.001700
-0.001679
-0.001648
-0.001585
-0.001535
-0.001496
-0.001503
-0.001464
-0.001490
-0.001569
-0.001577
-0.001595
-0.001635
-0.001619
-0.001619
-0.001601
-0.001561
-0.001629
-0.001637
-0.001622
-0.001632
-0.001595
-0.001564
-0.001524
-0.001517
-0.001483
-0.001446
-0.001422
-0.001375
-0.001406
-0.001330
-0.001304
-0.001341
-0.001359
-0.001383
-0.001430
-0.001496
-0.001517
-0.001490
-0.001448
-0.001396
-0.001357
-0.001320
-0.001343
-0.001294
-0.001259
-0.001280
-0.001307
-0.001362
-0.001401
-0.001430
-0.001448
-0.001448
-0.001456
-0.001433
-0.001435
-0.001438
-0.001404
-0.001401
-0.001378
-0.001380
-0.001448
-0.001475
-0.001475
-0.001446
-0.001417
-0.001409
-0.001357
-0.001315
-0.001307
-0.001278
-0.001262
-0.001291
-0.001309
-0.001259
-0.001212
-0.001152
-0.001099
-0.001042
-0.000984
-0.000987
-0.001000
-0.001065
-0.001120
-0.001202
-0.001288
-0.001425
-0.001553
-0.001559
-0.001543
-0.001519
-0.001451
-0.001404
-0.001422
-0.001399
-0.001372
-0.001275
-0.001202
-0.001149
-0.001141
-0.001165
-0.001152
-0.001173
-0.001204
-0.001223
-0.001278
-0.001320
-0.001304
-0.001309
-0.001325
-0.001330
-0.001270
-0.001304
-0.001283
-0.001197
-0.001160
-0.001094
-0.001052
-0.001141
-0.001139
-0.001155
-0.001147
-0.001178
-0.001157
-0.001149
-0.001168
-0.001123
-0.001149
-0.001238
-0.001328
-0.001301
-0.001283
-0.001278
-0.001254
-0.001191
-0.001102
-0.001015
-0.000984
-0.000939
-0.000955
-0.001010
-0.001000
-0.001057
-0.001123
-0.001120
-0.001155
-0.001176
-0.001204
-0.001160
-0.001144
-0.001168
-0.001139
-0.001144
-0.001162
-0.001157
-0.001181
-0.001181
-0.001189
-0.001199
-0.001189
-0.001267
-0.001294
-0.001275
-0.001207
-0.001197
-0.001157
-0.001089
-0.000981
-0.000953
-0.001034
-0.001034
-0.001029
-0.001097
-0.001078
-0.001060
-0.001068
-0.001086
-0.001134
-0.001141
-0.001123
-0.001092
-0.001105
-0.001097
-0.001149
-0.001173
-0.001215
-0.001238
-0.001220
-0.001215
-0.001105
-0.001026
-0.000971
-0.000895
-0.000895
-0.001010
-0.001071
-0.001120
-0.001218
-0.001275
-0.001262
-0.001265
-0.001296
-0.001283
-0.001278
-0.001207
-0.001176
-0.001092
-0.001084
-0.001055
-0.001026
-0.000979
-0.000997
-0.001029
-0.001005
-0.000997
-0.000979
-0.000971
-0.000989
-0.001013
-0.001063
-0.001052
-0.001029
-0.001055
-0.001047
-0.001031
-0.001036
-0.001086
-0.001113
-0.001123
-0.001134
-0.001105
-0.001057
-0.000989
-0.001023
-0.001005
-0.001010
-0.001029
-0.001068
-0.001110
-0.001120
-0.001126
-0.001113
-0.001128
-0.001078
-0.001050
-0.001092
-0.001092
-0.001113
-0.001099
-0.001144
-0.001144
-0.001060
-0.001010
-0.000971
-0.000921
-0.000895
-0.000882
-0.000882
-0.000908
-0.000913
-0.000900
-0.000892
-0.000861
-0.000811
-0.000834
-0.000816
-0.000842
-0.000911
-0.000879
-0.000858
-0.000811
-0.000748
-0.000682
-0.000695
-0.000703
-0.000701
-0.000761
-0.000777
-0.000792
-0.000771
-0.000795
-0.000808
-0.000790
-0.000774
-0.000766
-0.000798
-0.000785
-0.000850
-0.000905
-0.000950
-0.001031
-0.000997
-0.000939
-0.000890
-0.000824
-0.000819
-0.000845
-0.000882
-0.000882
-0.000882
-0.000876
-0.000926
-0.000884
-0.000879
-0.000890
-0.000866
-0.000882
-0.000858
-0.000908
-0.000989
-0.001005
-0.001018
-0.001010
-0.001005
-0.001034
-0.001010
-0.001018
-0.001018
-0.001029
-0.001031
-0.001050
-0.001107
-0.001078
-0.001081
-0.001057
-0.001013
-0.001010
-0.000966
-0.000942
-0.000926
-0.000890
-0.000863
-0.000845
-0.000840
-0.000850
-0.000827
-0.000827
-0.000871
-0.000887
-0.000848
-0.000811
-0.000792
-0.000792
-0.000764
-0.000764
-0.000777
-0.000779
-0.000766
-0.000732
-0.000774
-0.000800
-0.000813
-0.000842
-0.000829
-0.000795
-0.000769
-0.000727
-0.000722
-0.000724
-0.000729
-0.000777
-0.000785
-0.000774
-0.000756
-0.000732
-0.000716
-0.000693
-0.000646
-0.000667
-0.000667
-0.000687
-0.000727
-0.000761
-0.000824
-0.000853
-0.000858
-0.000863
-0.000908
-0.000858
-0.000853
-0.000879
-0.000900
-0.000879
-0.000855
-0.000869
-0.000871
-0.000848
-0.000806
-0.000787
-0.000724
-0.000648
-0.000614
-0.000601
-0.000548
-0.000520
-0.000512
-0.000514
-0.000520
-0.000551
-0.000577
-0.000596
-0.000625
-0.000653
-0.000635
-0.000682
-0.000706
-0.000708
-0.000756
-0.000771
-0.000771
-0.000748
-0.000774
-0.000771
-0.000813
-0.000806
-0.000779
-0.000779
-0.000724
-0.000719
-0.000729
-0.000727
-0.000714
-0.000719
-0.000743
-0.000727
-0.000724
-0.000719
-0.000729
-0.000753
-0.000745
-0.000764
-0.000766
-0.000745
-0.000758
-0.000724
-0.000714
-0.000648
-0.000609
-0.000580
-0.000533
-0.000543
-0.000562
-0.000564
-0.000598
-0.000598
-0.000572
-0.000567
-0.000569
-0.000614
-0.000614
-0.000622
-0.000630
-0.000701
-0.000795
-0.000824
-0.000887
-0.000890
-0.000840
-0.000834
-0.000808
-0.000732
-0.000685
-0.000667
-0.000622
-0.000569
-0.000611
-0.000656
-0.000667
-0.000716
-0.000753
-0.000756
-0.000785
-0.000756
-0.000735
-0.000703
-0.000656
-0.000635
-0.000604
-0.000656
-0.000648
-0.000643
-0.000625
-0.000588
-0.000580
-0.000501
-0.000562
-0.000522
-0.000501
-0.000554
-0.000622
-0.000653
-0.000703
-0.000724
-0.000727
-0.000701
-0.000690
-0.000685
-0.000708
-0.000722
-0.000750
-0.000695
-0.000677
-0.000701
-0.000685
-0.000674
-0.000714
-0.000693
-0.000614
-0.000601
-0.000601
-0.000580
-0.000606
-0.000572
-0.000588
-0.000567
-0.000525
-0.000541
-0.000506
-0.000485
-0.000512
-0.000533
-0.000530
-0.000611
-0.000653
-0.000643
-0.000698
-0.000682
-0.000606
-0.000585
-0.000548
-0.000567
-0.000577
-0.000585
-0.000622
-0.000622
-0.000614
-0.000656
-0.000714
-0.000690
-0.000695
-0.000667
-0.000596
-0.000604
-0.000556
-0.000535
-0.000504
-0.000520
-0.000527
-0.000514
-0.000546
-0.000593
-0.000635
-0.000664
-0.000667
-0.000659
-0.000635
-0.000583
-0.000569
-0.000585
-0.000598
-0.000572
-0.000546
-0.000533
-0.000506
-0.000512
-0.000538
-0.000567
-0.000569
-0.000614
-0.000614
-0.000601
-0.000635
-0.000590
-0.000606
-0.000619
-0.000611
-0.000593
-0.000546
-0.000543
-0.000509
-0.000459
-0.000470
-0.000514
-0.000522
-0.000554
-0.000551
-0.000583
-0.000632
-0.000659
-0.000674
-0.000708
-0.000716
-0.000727
-0.000748
-0.000732
-0.000674
-0.000625
-0.000562
-0.000504
-0.000478
-0.000459
-0.000467
-0.000499
-0.000457
-0.000470
-0.000506
-0.000559
-0.000577
-0.000651
-0.000646
-0.000693
-0.000680
-0.000625
-0.000632
-0.000598
-0.000520
-0.000506
-0.000483
-0.000517
-0.000551
-0.000583
-0.000614
-0.000596
-0.000588
-0.000543
-0.000525
-0.000520
-0.000491
-0.000520
-0.000522
-0.000488
-0.000533
-0.000559
-0.000598
-0.000619
-0.000562
-0.000567
-0.000577
-0.000554
-0.000577
-0.000606
-0.000580
-0.000569
-0.000593
-0.000562
-0.000564
-0.000572
-0.000541
-0.000548
-0.000543
-0.000488
-0.000488
-0.000480
-0.000491
-0.000504
-0.000525
-0.000590
-0.000627
-0.000577
-0.000593
-0.000572
-0.000538
-0.000583
-0.000583
-0.000527
-0.000567
-0.000580
-0.000548
-0.000546
-0.000485
-0.000506
-0.000559
-0.000556
-0.000546
-0.000551
-0.000538
-0.000543
-0.000514
-0.000496
-0.000522
-0.000506
-0.000517
-0.000609
-0.000648
-0.000648
-0.000646
-0.000604
-0.000580
-0.000548
-0.000509
-0.000483
-0.000480
-0.000483
-0.000496
-0.000506
-0.000478
-0.000485
-0.000509
-0.000509
-0.000533
-0.000551
-0.000541
-0.000590
-0.000567
-0.000567
-0.000541
-0.000546
-0.000501
-0.000488
-0.000467
-0.000459
-0.000451
-0.000464
-0.000478
-0.000470
-0.000520
-0.000535
-0.000564
-0.000577
-0.000556
-0.000580
-0.000585
-0.000577
-0.000556
-0.000541
-0.000527
-0.000499
