Start time = 18:28:51.447675
End time = 18:29:01.381020
laser_energy = 7.040
channel_1_dial = 850
channel_2_dial = 850
channel_3_dial = 850
channel_4_dial = 850
NG-1-LII = 0
NG-3-15399 = 0
NG-4-LII = 0
NG-4-15399 = 0
NG-5-LII = 0
NG-5-15399 = 0
NG-9-LII = 0
NG-9-15399 = 0
NG-10-01 = 0
NG-11-15399 = 0
NG-12-15399 = 0
NG-4A-2001 = 0
NG-4B-2001 = 0
NG-5A-2001 = 0
NG-3-2001 = 0
NG-5B-2001 = 0
NG-1-2001 = 0
NG-9-2001 = 0
NG-10-2001 = 0
NG-11-2001 = 0
NG-12-2001 = 0
AND-200SN09 = 0
AND-100SN09 = 0
AND-050SN09 = 0
AND-030SN09 = 0
AND-015SN05 = 0
PMT#1Voltage = 0
PMT#2Voltage = 0
t0(sec) = 0.000000E+0
dt(sec) = 4.000000E-10
F1:INSP "
DESCRIPTOR_NAME    : WAVEDESC           
TEMPLATE_NAME      : LECROY_2_3         
COMM_TYPE          : word               
COMM_ORDER         : HIFIRST            
WAVE_DESCRIPTOR    : 346                
USER_TEXT          : 0                  
RES_DESC1          : 0                  
TRIGTIME_ARRAY     : 0                  
RIS_TIME_ARRAY     : 0                  
RES_ARRAY1         : 0                  
WAVE_ARRAY_1       : 10002              
WAVE_ARRAY_2       : 0                  
RES_ARRAY2         : 0                  
RES_ARRAY3         : 0                  
INSTRUMENT_NAME    : LECROYHDO6104      
INSTRUMENT_NUMBER  : 6308               
TRACE_LABEL        :                    
RESERVED1          : 5001               
RESERVED2          : 0                  
WAVE_ARRAY_COUNT   : 5001               
PNTS_PER_SCREEN    : 5000               
FIRST_VALID_PNT    : 0                  
LAST_VALID_PNT     : 5000               
FIRST_POINT        : 0                  
SPARSING_FACTOR    : 1                  
SEGMENT_INDEX      : 0                  
SUBARRAY_COUNT     : 1                  
SWEEPS_PER_ACQ     : 200                
POINTS_PER_PAIR    : 0                  
PAIR_OFFSET        : 0                  
VERTICAL_GAIN      : 2.6238e-006        
VERTICAL_OFFSET    : 6.5501e-002        
MAX_VALUE          : 3.0816e+004        
MIN_VALUE          : 1.3388e+004        
NOMINAL_BITS       : 16                 
NOM_SUBARRAY_COUNT : 1                  
HORIZ_INTERVAL     : 4.0000e-010        
HORIZ_OFFSET       : -2.00000000e-007   
PIXEL_OFFSET       : -2.00000000e-007   
VERTUNIT           : Unit Name = V
HORUNIT            : Unit Name = S
HORIZ_UNCERTAINTY  : 1.0000e-012        
TRIGGER_TIME       : Date = APR 17, 2024, Time = 19:28:47.315148070
ACQ_DURATION       : 9.9989e+000        
RECORD_TYPE        : single_sweep       
PROCESSING_DONE    : no_processing      
RESERVED5          : 0                  
RIS_SWEEPS         : 1                  
TIMEBASE           : 200_ns/div         
VERT_COUPLING      : DC_50_Ohms         
PROBE_ATT          : 1.0000e+000        
FIXED_VERT_GAIN    : 5_mV/div           
BANDWIDTH_LIMIT    : off                
VERTICAL_VERNIER   : 1.1600e+000        
ACQ_VERT_OFFSET    : 0.0000e+000        
WAVE_SOURCE        : UNKNOWN            
"
0.000126
0.000121
0.000100
0.000097
0.000087
0.000113
0.000118
0.000100
0.000068
0.000087
0.000071
0.000094
0.000110
0.000097
0.000113
0.000136
0.000084
0.000123
0.000147
0.000142
0.000155
0.000126
0.000147
0.000134
0.000123
0.000129
0.000129
0.000115
0.000110
0.000142
0.000115
0.000129
0.000126
0.000097
0.000097
0.000144
0.000068
0.000118
0.000115
0.000110
0.000142
0.000113
0.000115
0.000121
0.000115
0.000139
0.000142
0.000147
0.000126
0.000134
0.000121
0.000136
0.000121
0.000131
0.000113
0.000149
0.000123
0.000110
0.000118
0.000094
0.000081
0.000071
0.000045
0.000042
0.000034
0.000050
0.000060
0.000066
0.000087
0.000113
0.000076
0.000081
0.000123
0.000149
0.000113
0.000118
0.000142
0.000149
0.000147
0.000108
0.000110
0.000126
0.000094
0.000134
0.000118
0.000134
0.000118
0.000129
0.000110
0.000139
0.000118
0.000097
0.000118
0.000092
0.000097
0.000144
0.000113
0.000142
0.000147
0.000113
0.000115
0.000100
0.000087
0.000113
0.000084
0.000092
0.000092
0.000076
0.000068
0.000087
0.000105
0.000087
0.000129
0.000115
0.000102
0.000123
0.000108
0.000131
0.000126
0.000110
0.000100
0.000092
0.000110
0.000131
0.000097
0.000102
0.000113
0.000092
0.000102
0.000105
0.000100
0.000118
0.000092
0.000081
0.000089
0.000144
0.000115
0.000129
0.000152
0.000113
0.000113
0.000123
0.000110
0.000147
0.000113
0.000076
0.000113
0.000076
0.000089
0.000115
0.000105
0.000118
0.000108
0.000105
0.000100
0.000129
0.000108
0.000108
0.000118
0.000105
0.000113
0.000121
0.000131
0.000131
0.000134
0.000131
0.000110
0.000139
0.000097
0.000113
0.000084
0.000081
0.000079
0.000084
0.000081
0.000105
0.000097
0.000113
0.000142
0.000115
0.000129
0.000118
0.000129
0.000129
0.000121
0.000142
0.000144
0.000136
0.000108
0.000139
0.000110
0.000089
0.000089
0.000089
0.000094
0.000105
0.000097
0.000097
0.000094
0.000123
0.000087
0.000123
0.000121
0.000139
0.000102
0.000110
0.000126
0.000110
0.000097
0.000136
0.000131
0.000139
0.000157
0.000123
0.000134
0.000147
0.000123
0.000129
0.000131
0.000118
0.000097
0.000108
0.000100
0.000071
0.000084
0.000094
0.000100
0.000102
0.000100
0.000113
0.000108
0.000113
0.000123
0.000149
0.000136
0.000152
0.000092
0.000092
0.000121
0.000097
0.000108
0.000102
0.000089
0.000097
0.000094
0.000063
0.000068
0.000066
0.000039
0.000081
0.000087
0.000105
0.000129
0.000118
0.000110
0.000144
0.000134
0.000142
0.000136
0.000126
0.000131
0.000131
0.000102
0.000121
0.000089
0.000126
0.000110
0.000092
0.000087
0.000102
0.000110
0.000066
0.000108
0.000113
0.000113
0.000100
0.000092
0.000126
0.000134
0.000149
0.000136
0.000136
0.000126
0.000129
0.000121
0.000121
0.000108
0.000097
0.000076
0.000110
0.000081
0.000063
0.000084
0.000108
0.000087
0.000108
0.000084
0.000118
0.000121
0.000121
0.000115
0.000142
0.000089
0.000097
0.000121
0.000121
0.000129
0.000144
0.000108
0.000110
0.000110
0.000110
0.000097
0.000113
0.000084
0.000110
0.000108
0.000092
0.000100
0.000102
0.000100
0.000126
0.000134
0.000144
0.000134
0.000144
0.000147
0.000165
0.000147
0.000173
0.000152
0.000160
0.000136
0.000160
0.000142
0.000131
0.000113
0.000115
0.000129
0.000105
0.000089
0.000129
0.000089
0.000102
0.000087
0.000089
0.000081
0.000079
0.000094
0.000097
0.000108
0.000113
0.000118
0.000131
0.000113
0.000142
0.000129
0.000110
0.000118
0.000131
0.000100
0.000118
0.000089
0.000092
0.000092
0.000089
0.000066
0.000097
0.000081
0.000100
0.000136
0.000121
0.000113
0.000152
0.000136
0.000152
0.000126
0.000118
0.000142
0.000118
0.000102
0.000115
0.000084
0.000102
0.000102
0.000092
0.000071
0.000105
0.000076
0.000097
0.000131
0.000094
0.000094
0.000110
0.000081
0.000129
0.000115
0.000105
0.000139
0.000123
0.000123
0.000147
0.000131
0.000126
0.000110
0.000118
0.000136
0.000160
0.000134
0.000152
0.000152
0.000118
0.000055
0.000084
0.000071
0.000073
0.000118
0.000126
0.000126
0.000115
0.000100
0.000105
0.000108
0.000063
0.000068
0.000060
0.000058
0.000108
0.000097
0.000113
0.000131
0.000079
0.000102
0.000121
0.000102
0.000144
0.000165
0.000173
0.000189
0.000123
0.000081
0.000076
0.000060
0.000068
0.000092
0.000097
0.000129
0.000160
0.000173
0.000168
0.000165
0.000155
0.000105
0.000089
0.000042
0.000068
0.000073
0.000118
0.000108
0.000147
0.000087
0.000110
0.000126
0.000149
0.000241
0.000218
0.000210
0.000210
0.000121
0.000058
0.000018
0.000039
0.000073
0.000081
0.000087
0.000084
0.000055
0.000060
0.000052
0.000058
0.000081
0.000102
0.000123
0.000134
0.000157
0.000170
0.000160
0.000210
0.000160
0.000181
0.000189
0.000170
0.000165
0.000160
0.000073
0.000071
0.000045
-0.000024
0.000018
0.000029
-0.000003
0.000045
0.000024
0.000026
-0.000000
0.000042
0.000121
0.000197
0.000257
0.000312
0.000359
0.000325
0.000289
0.000244
0.000226
0.000149
0.000089
0.000042
-0.000016
-0.000034
-0.000053
-0.000068
0.000003
0.000045
0.000081
0.000121
0.000136
0.000191
0.000157
0.000173
0.000160
0.000165
0.000126
0.000139
0.000066
0.000094
0.000110
0.000129
0.000157
0.000149
0.000100
0.000139
0.000189
0.000233
0.000257
0.000249
0.000249
0.000239
0.000168
0.000144
0.000123
0.000097
0.000052
0.000042
-0.000037
-0.000060
-0.000042
-0.000029
0.000013
-0.000016
-0.000155
-0.000349
-0.000769
-0.001346
-0.002175
-0.003120
-0.004164
-0.005358
-0.006853
-0.008430
-0.009986
-0.011343
-0.012426
-0.013279
-0.013885
-0.014279
-0.014531
-0.014670
-0.014853
-0.014966
-0.014796
-0.014468
-0.014158
-0.013746
-0.013253
-0.012752
-0.012266
-0.011752
-0.011324
-0.011010
-0.010613
-0.010306
-0.010057
-0.009740
-0.009362
-0.008926
-0.008619
-0.008236
-0.007916
-0.007620
-0.007454
-0.007278
-0.007142
-0.007040
-0.006798
-0.006599
-0.006455
-0.006376
-0.006302
-0.006205
-0.006058
-0.005914
-0.005786
-0.005654
-0.005591
-0.005610
-0.005673
-0.005694
-0.005715
-0.005835
-0.005951
-0.006090
-0.006140
-0.006137
-0.006135
-0.006127
-0.006132
-0.006103
-0.006051
-0.005990
-0.005938
-0.005888
-0.005828
-0.005741
-0.005702
-0.005557
-0.005324
-0.005156
-0.004991
-0.004823
-0.004689
-0.004558
-0.004463
-0.004279
-0.004154
-0.004075
-0.003931
-0.003826
-0.003768
-0.003707
-0.003645
-0.003679
-0.003652
-0.003634
-0.003705
-0.003757
-0.003749
-0.003666
-0.003584
-0.003529
-0.003437
-0.003301
-0.003254
-0.003198
-0.003088
-0.003028
-0.002981
-0.002891
-0.002823
-0.002750
-0.002689
-0.002771
-0.002899
-0.002981
-0.003088
-0.003180
-0.003151
-0.003070
-0.003007
-0.002920
-0.002910
-0.002933
-0.002881
-0.002831
-0.002779
-0.002700
-0.002632
-0.002522
-0.002453
-0.002304
-0.002220
-0.002314
-0.002380
-0.002403
-0.002495
-0.002561
-0.002640
-0.002640
-0.002674
-0.002621
-0.002548
-0.002480
-0.002451
-0.002417
-0.002364
-0.002312
-0.002296
-0.002278
-0.002296
-0.002188
-0.002065
-0.002007
-0.001879
-0.001789
-0.001724
-0.001674
-0.001624
-0.001611
-0.001645
-0.001656
-0.001703
-0.001761
-0.001860
-0.001879
-0.001929
-0.001929
-0.001931
-0.001944
-0.002047
-0.002102
-0.002159
-0.002207
-0.002146
-0.002026
-0.001923
-0.001842
-0.001713
-0.001619
-0.001530
-0.001490
-0.001485
-0.001483
-0.001517
-0.001569
-0.001564
-0.001582
-0.001587
-0.001532
-0.001509
-0.001509
-0.001443
-0.001341
-0.001401
-0.001425
-0.001391
-0.001430
-0.001451
-0.001451
-0.001417
-0.001430
-0.001448
-0.001467
-0.001417
-0.001385
-0.001364
-0.001325
-0.001257
-0.001155
-0.001084
-0.000984
-0.000932
-0.000976
-0.001015
-0.001097
-0.001183
-0.001309
-0.001396
-0.001475
-0.001556
-0.001601
-0.001580
-0.001506
-0.001467
-0.001441
-0.001357
-0.001249
-0.001173
-0.001055
-0.000934
-0.000913
-0.000895
-0.000890
-0.000937
-0.000945
-0.001005
-0.001034
-0.001076
-0.001084
-0.001071
-0.001057
-0.001063
-0.001086
-0.001076
-0.001081
-0.001055
-0.001010
-0.000955
-0.000924
-0.000842
-0.000769
-0.000790
-0.000785
-0.000800
-0.000819
-0.000916
-0.000994
-0.001044
-0.001081
-0.001044
-0.000997
-0.000942
-0.000895
-0.000908
-0.000913
-0.000945
-0.000968
-0.001036
-0.001063
-0.001042
-0.001018
-0.000981
-0.000871
-0.000861
-0.000813
-0.000777
-0.000758
-0.000779
-0.000811
-0.000842
-0.000900
-0.000950
-0.000916
-0.000924
-0.000963
-0.000958
-0.000958
-0.000976
-0.000968
-0.000958
-0.000887
-0.000837
-0.000764
-0.000711
-0.000622
-0.000533
-0.000517
-0.000501
-0.000428
-0.000422
-0.000433
-0.000472
-0.000512
-0.000648
-0.000771
-0.000832
-0.000882
-0.000947
-0.000968
-0.000968
-0.001029
-0.001010
-0.000968
-0.000913
-0.000887
-0.000842
-0.000792
-0.000748
-0.000719
-0.000661
-0.000588
-0.000577
-0.000580
-0.000609
-0.000661
-0.000667
-0.000667
-0.000732
-0.000785
-0.000806
-0.000840
-0.000853
-0.000827
-0.000792
-0.000756
-0.000701
-0.000667
-0.000638
-0.000625
-0.000630
-0.000622
-0.000635
-0.000659
-0.000635
-0.000622
-0.000609
-0.000551
-0.000585
-0.000572
-0.000577
-0.000617
-0.000638
-0.000646
-0.000635
-0.000687
-0.000664
-0.000667
-0.000669
-0.000674
-0.000672
-0.000617
-0.000643
-0.000638
-0.000564
-0.000590
-0.000572
-0.000496
-0.000438
-0.000412
-0.000415
-0.000425
-0.000430
-0.000388
-0.000457
-0.000527
-0.000572
-0.000648
-0.000729
-0.000724
-0.000719
-0.000627
-0.000583
-0.000551
-0.000506
-0.000520
-0.000559
-0.000590
-0.000533
-0.000551
-0.000593
-0.000541
-0.000535
-0.000530
-0.000525
-0.000520
-0.000496
-0.000512
-0.000548
-0.000535
-0.000551
-0.000541
-0.000577
-0.000604
-0.000630
-0.000630
-0.000627
-0.000546
-0.000501
-0.000480
-0.000480
-0.000412
-0.000449
-0.000470
-0.000501
-0.000504
-0.000530
-0.000585
-0.000601
-0.000580
-0.000622
-0.000680
-0.000756
-0.000743
-0.000758
-0.000735
-0.000711
-0.000646
-0.000577
-0.000514
-0.000430
-0.000381
-0.000365
-0.000302
-0.000276
-0.000260
-0.000255
-0.000312
-0.000325
-0.000404
-0.000493
-0.000530
-0.000627
-0.000590
-0.000611
-0.000617
-0.000572
-0.000517
-0.000533
-0.000493
-0.000506
-0.000454
-0.000467
-0.000454
-0.000436
-0.000454
-0.000425
-0.000378
-0.000386
-0.000433
-0.000438
-0.000459
-0.000522
-0.000577
-0.000609
-0.000648
-0.000716
-0.000685
-0.000693
-0.000708
-0.000674
-0.000651
-0.000632
-0.000533
-0.000483
-0.000462
-0.000443
-0.000415
-0.000375
-0.000367
-0.000378
-0.000278
-0.000302
-0.000352
-0.000318
-0.000286
-0.000323
-0.000312
-0.000320
-0.000378
-0.000438
-0.000493
-0.000501
-0.000485
-0.000449
-0.000420
-0.000402
-0.000378
-0.000412
-0.000391
-0.000404
-0.000378
-0.000422
-0.000407
-0.000388
-0.000339
-0.000320
-0.000302
-0.000268
-0.000286
-0.000312
-0.000315
-0.000336
-0.000360
-0.000428
-0.000430
-0.000480
-0.000438
-0.000464
-0.000420
-0.000367
-0.000323
-0.000331
-0.000286
-0.000247
-0.000268
-0.000286
-0.000255
-0.000310
-0.000349
-0.000378
-0.000396
-0.000478
-0.000449
-0.000485
-0.000506
-0.000470
-0.000472
-0.000506
-0.000488
-0.000493
-0.000499
-0.000546
-0.000496
-0.000430
-0.000388
-0.000302
-0.000207
-0.000192
-0.000186
-0.000171
-0.000152
-0.000181
-0.000207
-0.000283
-0.000283
-0.000365
-0.000381
-0.000399
-0.000428
-0.000417
-0.000412
-0.000404
-0.000396
-0.000386
-0.000381
-0.000362
-0.000283
-0.000302
-0.000289
-0.000273
-0.000265
-0.000283
-0.000289
-0.000247
-0.000223
-0.000281
-0.000268
-0.000257
-0.000339
-0.000375
-0.000360
-0.000420
-0.000430
-0.000467
-0.000467
-0.000475
-0.000422
-0.000428
-0.000404
-0.000394
-0.000370
-0.000375
-0.000333
-0.000297
-0.000278
-0.000262
-0.000241
-0.000252
-0.000273
-0.000268
-0.000283
-0.000375
-0.000404
-0.000449
-0.000530
-0.000604
-0.000617
-0.000562
-0.000543
-0.000480
-0.000430
-0.000391
-0.000325
-0.000323
-0.000304
-0.000276
-0.000262
-0.000241
-0.000231
-0.000226
-0.000202
-0.000199
-0.000252
-0.000257
-0.000270
-0.000323
-0.000307
-0.000299
-0.000257
-0.000304
-0.000325
-0.000375
-0.000415
-0.000467
-0.000483
-0.000499
-0.000488
-0.000472
-0.000436
-0.000404
-0.000294
-0.000239
-0.000228
-0.000210
-0.000210
-0.000239
-0.000257
-0.000273
-0.000299
-0.000286
-0.000336
-0.000354
-0.000378
-0.000370
-0.000381
-0.000402
-0.000404
-0.000381
-0.000354
-0.000346
-0.000304
-0.000312
-0.000331
-0.000294
-0.000304
-0.000297
-0.000270
-0.000247
-0.000231
-0.000268
-0.000244
-0.000255
-0.000262
-0.000302
-0.000318
-0.000333
-0.000341
-0.000333
-0.000294
-0.000299
-0.000302
-0.000312
-0.000304
-0.000265
-0.000247
-0.000218
-0.000178
-0.000202
-0.000192
-0.000205
-0.000205
-0.000234
-0.000220
-0.000228
-0.000210
-0.000255
-0.000281
-0.000323
-0.000357
-0.000399
-0.000388
-0.000365
-0.000328
-0.000228
-0.000223
-0.000234
-0.000205
-0.000197
-0.000220
-0.000223
-0.000234
-0.000241
-0.000228
-0.000228
-0.000173
-0.000192
-0.000192
-0.000184
-0.000218
-0.000257
-0.000239
-0.000294
-0.000299
-0.000278
-0.000278
-0.000255
-0.000192
-0.000215
-0.000207
-0.000215
-0.000171
-0.000126
-0.000102
-0.000102
-0.000068
-0.000087
-0.000121
-0.000157
-0.000205
-0.000218
-0.000247
-0.000257
-0.000257
-0.000220
-0.000226
-0.000220
-0.000181
-0.000213
-0.000184
-0.000215
-0.000186
-0.000147
-0.000142
-0.000139
-0.000163
-0.000168
-0.000168
-0.000189
-0.000171
-0.000210
-0.000171
-0.000173
-0.000228
-0.000283
-0.000304
-0.000325
-0.000302
-0.000299
-0.000283
-0.000255
-0.000210
-0.000186
-0.000152
-0.000131
-0.000118
-0.000126
-0.000129
-0.000144
-0.000160
-0.000178
-0.000155
-0.000171
-0.000226
-0.000199
-0.000194
-0.000226
-0.000223
-0.000226
-0.000234
-0.000286
-0.000297
-0.000270
-0.000299
-0.000302
-0.000241
-0.000218
-0.000152
-0.000134
-0.000121
-0.000126
-0.000102
-0.000095
-0.000108
-0.000102
-0.000142
-0.000171
-0.000178
-0.000215
-0.000215
-0.000262
-0.000260
-0.000289
-0.000320
-0.000318
-0.000333
-0.000370
-0.000318
-0.000270
-0.000215
-0.000184
-0.000144
-0.000136
-0.000139
-0.000129
-0.000178
-0.000223
-0.000186
-0.000226
-0.000199
-0.000239
-0.000265
-0.000257
-0.000291
-0.000304
-0.000265
-0.000262
-0.000262
-0.000247
-0.000226
-0.000199
-0.000192
-0.000165
-0.000144
-0.000129
-0.000113
-0.000116
-0.000116
-0.000116
-0.000147
-0.000147
-0.000173
-0.000202
-0.000220
-0.000197
-0.000194
-0.000199
-0.000228
-0.000231
-0.000226
-0.000244
-0.000247
-0.000291
-0.000268
-0.000218
-0.000215
-0.000194
-0.000147
-0.000150
-0.000171
-0.000165
-0.000136
-0.000139
-0.000108
-0.000097
-0.000081
-0.000110
-0.000105
-0.000102
-0.000123
-0.000147
-0.000160
-0.000165
-0.000181
-0.000178
-0.000155
-0.000142
-0.000123
-0.000102
-0.000092
-0.000074
-0.000050
-0.000045
-0.000037
-0.000021
-0.000026
-0.000045
-0.000068
-0.000110
-0.000150
-0.000194
-0.000241
-0.000255
-0.000260
-0.000265
-0.000231
-0.000226
-0.000210
-0.000207
-0.000178
-0.000160
-0.000147
-0.000155
-0.000176
-0.000147
-0.000139
-0.000176
-0.000165
-0.000155
-0.000131
-0.000113
-0.000129
-0.000118
-0.000136
-0.000131
-0.000129
-0.000147
-0.000116
-0.000105
-0.000121
-0.000126
-0.000150
-0.000168
-0.000152
-0.000192
-0.000123
-0.000066
-0.000108
-0.000053
-0.000058
-0.000060
-0.000066
-0.000066
-0.000032
-0.000016
-0.000039
-0.000081
-0.000058
-0.000071
-0.000147
-0.000139
-0.000126
-0.000123
-0.000126
-0.000168
-0.000113
-0.000110
-0.000110
-0.000087
-0.000097
-0.000110
-0.000087
-0.000076
-0.000110
-0.000071
-0.000134
-0.000184
-0.000197
-0.000247
-0.000241
-0.000231
-0.000210
-0.000176
-0.000197
-0.000202
-0.000202
-0.000205
-0.000197
-0.000168
-0.000150
-0.000131
-0.000123
-0.000079
-0.000066
-0.000087
-0.000084
-0.000160
-0.000184
-0.000215
-0.000215
-0.000163
-0.000152
-0.000155
-0.000147
-0.000147
-0.000134
-0.000176
-0.000192
-0.000223
-0.000207
-0.000223
-0.000199
-0.000147
-0.000131
-0.000113
-0.000092
-0.000100
-0.000087
-0.000047
-0.000016
-0.000032
-0.000021
-0.000034
-0.000026
-0.000058
-0.000058
-0.000071
-0.000134
-0.000178
-0.000171
-0.000171
-0.000139
-0.000131
-0.000095
-0.000087
-0.000121
-0.000157
-0.000165
-0.000118
-0.000139
-0.000131
-0.000126
-0.000126
-0.000121
-0.000134
-0.000095
-0.000095
-0.000076
-0.000144
-0.000131
-0.000157
-0.000165
-0.000144
-0.000150
-0.000178
-0.000184
-0.000215
-0.000173
-0.000097
-0.000087
-0.000113
-0.000074
-0.000110
-0.000113
-0.000110
-0.000108
-0.000087
-0.000102
-0.000102
-0.000068
-0.000105
-0.000121
-0.000110
-0.000129
-0.000129
-0.000155
-0.000184
-0.000213
-0.000226
-0.000192
-0.000197
-0.000097
-0.000108
-0.000123
-0.000108
-0.000123
-0.000110
-0.000108
-0.000134
-0.000139
-0.000194
-0.000181
-0.000189
-0.000171
-0.000155
-0.000121
-0.000136
-0.000131
-0.000131
-0.000121
-0.000129
-0.000063
-0.000050
-0.000076
-0.000042
-0.000058
-0.000053
-0.000071
-0.000071
-0.000032
-0.000034
-0.000042
-0.000042
-0.000076
-0.000108
-0.000095
-0.000144
-0.000116
-0.000178
-0.000105
-0.000102
-0.000079
-0.000081
-0.000113
-0.000092
-0.000110
-0.000105
-0.000089
-0.000108
-0.000063
-0.000079
-0.000076
-0.000074
-0.000071
-0.000032
-0.000047
-0.000032
-0.000050
-0.000097
-0.000081
-0.000144
-0.000150
-0.000165
-0.000199
-0.000192
-0.000168
-0.000126
-0.000108
-0.000095
-0.000110
-0.000110
-0.000147
-0.000102
-0.000089
-0.000092
-0.000084
-0.000074
-0.000092
-0.000102
-0.000121
-0.000116
-0.000108
-0.000108
-0.000152
-0.000155
-0.000131
-0.000116
-0.000097
-0.000089
-0.000084
-0.000047
-0.000102
-0.000071
-0.000055
-0.000037
-0.000058
-0.000081
-0.000071
-0.000063
-0.000063
-0.000058
-0.000003
-0.000026
-0.000055
-0.000063
-0.000071
-0.000076
-0.000066
-0.000079
-0.000076
-0.000066
-0.000071
-0.000050
-0.000047
-0.000081
-0.000084
-0.000131
-0.000163
-0.000142
-0.000134
-0.000163
-0.000121
-0.000110
-0.000097
-0.000076
-0.000039
-0.000068
-0.000081
-0.000079
-0.000113
-0.000150
-0.000168
