Start time = 18:30:23.983321
End time = 18:30:33.925867
laser_energy = 7.040
channel_1_dial = 850
channel_2_dial = 850
channel_3_dial = 850
channel_4_dial = 850
NG-1-LII = 0
NG-3-15399 = 0
NG-4-LII = 0
NG-4-15399 = 0
NG-5-LII = 0
NG-5-15399 = 0
NG-9-LII = 0
NG-9-15399 = 0
NG-10-01 = 0
NG-11-15399 = 0
NG-12-15399 = 0
NG-4A-2001 = 0
NG-4B-2001 = 0
NG-5A-2001 = 0
NG-3-2001 = 0
NG-5B-2001 = 0
NG-1-2001 = 0
NG-9-2001 = 0
NG-10-2001 = 0
NG-11-2001 = 0
NG-12-2001 = 0
AND-200SN09 = 0
AND-100SN09 = 0
AND-050SN09 = 0
AND-030SN09 = 0
AND-015SN05 = 0
PMT#1Voltage = 0
PMT#2Voltage = 0
t0(sec) = 0.000000E+0
dt(sec) = 4.000000E-10
F1:INSP "
DESCRIPTOR_NAME    : WAVEDESC           
TEMPLATE_NAME      : LECROY_2_3         
COMM_TYPE          : word               
COMM_ORDER         : HIFIRST            
WAVE_DESCRIPTOR    : 346                
USER_TEXT          : 0                  
RES_DESC1          : 0                  
TRIGTIME_ARRAY     : 0                  
RIS_TIME_ARRAY     : 0                  
RES_ARRAY1         : 0                  
WAVE_ARRAY_1       : 10002              
WAVE_ARRAY_2       : 0                  
RES_ARRAY2         : 0                  
RES_ARRAY3         : 0                  
INSTRUMENT_NAME    : LECROYHDO6104      
INSTRUMENT_NUMBER  : 6308               
TRACE_LABEL        :                    
RESERVED1          : 5001               
RESERVED2          : 0                  
WAVE_ARRAY_COUNT   : 5001               
PNTS_PER_SCREEN    : 5000               
FIRST_VALID_PNT    : 0                  
LAST_VALID_PNT     : 5000               
FIRST_POINT        : 0                  
SPARSING_FACTOR    : 1                  
SEGMENT_INDEX      : 0                  
SUBARRAY_COUNT     : 1                  
SWEEPS_PER_ACQ     : 200                
POINTS_PER_PAIR    : 0                  
PAIR_OFFSET        : 0                  
VERTICAL_GAIN      : 2.6238e-006        
VERTICAL_OFFSET    : 6.5501e-002        
MAX_VALUE          : 3.0816e+004        
MIN_VALUE          : 1.3388e+004        
NOMINAL_BITS       : 16                 
NOM_SUBARRAY_COUNT : 1                  
HORIZ_INTERVAL     : 4.0000e-010        
HORIZ_OFFSET       : -2.00000000e-007   
PIXEL_OFFSET       : -2.00000000e-007   
VERTUNIT           : Unit Name = V
HORUNIT            : Unit Name = S
HORIZ_UNCERTAINTY  : 1.0000e-012        
TRIGGER_TIME       : Date = APR 17, 2024, Time = 19:30:19.806297508
ACQ_DURATION       : 1.0064e+001        
RECORD_TYPE        : single_sweep       
PROCESSING_DONE    : no_processing      
RESERVED5          : 0                  
RIS_SWEEPS         : 1                  
TIMEBASE           : 200_ns/div         
VERT_COUPLING      : DC_50_Ohms         
PROBE_ATT          : 1.0000e+000        
FIXED_VERT_GAIN    : 5_mV/div           
BANDWIDTH_LIMIT    : off                
VERTICAL_VERNIER   : 1.1600e+000        
ACQ_VERT_OFFSET    : 0.0000e+000        
WAVE_SOURCE        : UNKNOWN            
"
0.000163
0.000142
0.000142
0.000176
0.000173
0.000155
0.000176
0.000202
0.000199
0.000205
0.000199
0.000189
0.000181
0.000157
0.000136
0.000139
0.000139
0.000170
0.000176
0.000184
0.000181
0.000142
0.000149
0.000205
0.000155
0.000168
0.000173
0.000189
0.000144
0.000152
0.000170
0.000144
0.000170
0.000176
0.000165
0.000207
0.000197
0.000157
0.000191
0.000194
0.000173
0.000191
0.000173
0.000202
0.000160
0.000129
0.000160
0.000144
0.000136
0.000168
0.000173
0.000170
0.000165
0.000181
0.000163
0.000176
0.000152
0.000152
0.000144
0.000189
0.000170
0.000163
0.000173
0.000197
0.000212
0.000228
0.000184
0.000197
0.000176
0.000194
0.000155
0.000147
0.000134
0.000152
0.000144
0.000144
0.000126
0.000142
0.000163
0.000168
0.000178
0.000189
0.000191
0.000205
0.000215
0.000194
0.000194
0.000191
0.000163
0.000178
0.000173
0.000181
0.000165
0.000160
0.000163
0.000152
0.000186
0.000149
0.000134
0.000176
0.000189
0.000184
0.000178
0.000184
0.000202
0.000165
0.000207
0.000220
0.000176
0.000205
0.000202
0.000186
0.000194
0.000178
0.000173
0.000189
0.000157
0.000152
0.000163
0.000152
0.000157
0.000157
0.000147
0.000168
0.000149
0.000165
0.000152
0.000173
0.000168
0.000176
0.000178
0.000155
0.000199
0.000186
0.000205
0.000205
0.000186
0.000194
0.000220
0.000186
0.000170
0.000181
0.000157
0.000181
0.000165
0.000110
0.000134
0.000149
0.000157
0.000165
0.000168
0.000178
0.000155
0.000163
0.000210
0.000226
0.000194
0.000184
0.000189
0.000147
0.000144
0.000142
0.000147
0.000163
0.000160
0.000165
0.000165
0.000165
0.000176
0.000168
0.000176
0.000168
0.000157
0.000173
0.000186
0.000170
0.000170
0.000170
0.000178
0.000199
0.000178
0.000160
0.000160
0.000165
0.000197
0.000176
0.000181
0.000189
0.000181
0.000168
0.000197
0.000178
0.000181
0.000181
0.000163
0.000197
0.000218
0.000194
0.000207
0.000194
0.000178
0.000178
0.000176
0.000189
0.000199
0.000160
0.000194
0.000202
0.000197
0.000199
0.000181
0.000197
0.000191
0.000205
0.000170
0.000163
0.000178
0.000168
0.000176
0.000160
0.000147
0.000131
0.000147
0.000155
0.000160
0.000152
0.000123
0.000144
0.000134
0.000131
0.000170
0.000173
0.000168
0.000186
0.000194
0.000210
0.000202
0.000152
0.000191
0.000181
0.000173
0.000194
0.000168
0.000181
0.000181
0.000163
0.000189
0.000205
0.000163
0.000136
0.000170
0.000149
0.000157
0.000165
0.000165
0.000199
0.000210
0.000186
0.000184
0.000165
0.000163
0.000165
0.000168
0.000176
0.000173
0.000139
0.000165
0.000176
0.000152
0.000176
0.000155
0.000160
0.000181
0.000157
0.000170
0.000191
0.000173
0.000212
0.000207
0.000212
0.000186
0.000170
0.000170
0.000194
0.000186
0.000136
0.000165
0.000155
0.000147
0.000134
0.000144
0.000149
0.000139
0.000181
0.000157
0.000215
0.000186
0.000176
0.000197
0.000218
0.000218
0.000205
0.000215
0.000202
0.000210
0.000194
0.000184
0.000184
0.000144
0.000170
0.000163
0.000170
0.000144
0.000170
0.000176
0.000181
0.000165
0.000139
0.000152
0.000168
0.000165
0.000142
0.000147
0.000170
0.000191
0.000181
0.000189
0.000210
0.000212
0.000165
0.000191
0.000173
0.000149
0.000136
0.000160
0.000134
0.000147
0.000131
0.000131
0.000181
0.000149
0.000173
0.000191
0.000197
0.000199
0.000176
0.000205
0.000197
0.000163
0.000194
0.000191
0.000176
0.000186
0.000173
0.000170
0.000152
0.000155
0.000170
0.000134
0.000147
0.000155
0.000147
0.000165
0.000199
0.000191
0.000205
0.000165
0.000202
0.000210
0.000202
0.000218
0.000207
0.000186
0.000181
0.000184
0.000178
0.000178
0.000136
0.000126
0.000142
0.000118
0.000115
0.000113
0.000144
0.000155
0.000134
0.000157
0.000186
0.000178
0.000163
0.000205
0.000202
0.000228
0.000207
0.000197
0.000197
0.000191
0.000191
0.000181
0.000184
0.000160
0.000163
0.000170
0.000157
0.000144
0.000105
0.000121
0.000142
0.000149
0.000165
0.000194
0.000207
0.000168
0.000176
0.000173
0.000157
0.000186
0.000186
0.000249
0.000210
0.000194
0.000186
0.000186
0.000181
0.000163
0.000144
0.000134
0.000144
0.000115
0.000144
0.000142
0.000155
0.000139
0.000173
0.000155
0.000157
0.000186
0.000199
0.000268
0.000260
0.000247
0.000207
0.000155
0.000136
0.000160
0.000152
0.000189
0.000181
0.000197
0.000202
0.000223
0.000212
0.000181
0.000181
0.000113
0.000073
0.000097
0.000108
0.000126
0.000160
0.000173
0.000168
0.000165
0.000176
0.000241
0.000268
0.000291
0.000296
0.000312
0.000257
0.000207
0.000155
0.000123
0.000139
0.000123
0.000129
0.000131
0.000131
0.000134
0.000123
0.000144
0.000149
0.000155
0.000194
0.000212
0.000215
0.000210
0.000223
0.000283
0.000268
0.000233
0.000239
0.000212
0.000194
0.000176
0.000147
0.000121
0.000058
0.000058
0.000058
0.000081
0.000060
0.000089
0.000108
0.000110
0.000079
0.000060
0.000118
0.000184
0.000239
0.000365
0.000401
0.000417
0.000388
0.000354
0.000310
0.000275
0.000170
0.000113
0.000092
0.000021
-0.000008
-0.000021
-0.000008
0.000047
0.000084
0.000142
0.000199
0.000236
0.000239
0.000286
0.000291
0.000286
0.000247
0.000220
0.000186
0.000149
0.000149
0.000157
0.000178
0.000176
0.000136
0.000157
0.000168
0.000184
0.000212
0.000244
0.000268
0.000254
0.000247
0.000239
0.000252
0.000191
0.000170
0.000139
0.000105
0.000050
0.000005
0.000016
-0.000016
-0.000197
-0.000451
-0.000806
-0.001372
-0.002241
-0.003474
-0.004930
-0.006567
-0.008207
-0.009847
-0.011230
-0.012377
-0.013500
-0.014394
-0.014992
-0.015357
-0.015696
-0.015913
-0.016000
-0.015906
-0.015879
-0.015811
-0.015546
-0.015281
-0.014869
-0.014274
-0.013707
-0.013295
-0.012862
-0.012426
-0.012025
-0.011781
-0.011479
-0.011049
-0.010598
-0.010254
-0.009871
-0.009514
-0.009299
-0.009031
-0.008729
-0.008422
-0.008236
-0.008018
-0.007711
-0.007410
-0.007223
-0.007058
-0.006895
-0.006659
-0.006413
-0.006142
-0.005967
-0.005820
-0.005880
-0.006090
-0.006190
-0.006224
-0.006229
-0.006232
-0.006274
-0.006413
-0.006504
-0.006426
-0.006295
-0.006158
-0.005980
-0.005940
-0.005977
-0.005988
-0.005938
-0.005814
-0.005728
-0.005662
-0.005649
-0.005699
-0.005730
-0.005733
-0.005654
-0.005510
-0.005426
-0.005261
-0.005109
-0.004943
-0.004728
-0.004550
-0.004356
-0.004285
-0.004235
-0.004154
-0.004043
-0.003944
-0.003986
-0.003952
-0.003938
-0.003970
-0.004007
-0.003936
-0.003841
-0.003707
-0.003558
-0.003435
-0.003317
-0.003296
-0.003261
-0.003243
-0.003175
-0.003099
-0.003057
-0.003059
-0.003115
-0.003183
-0.003259
-0.003217
-0.003107
-0.003020
-0.002907
-0.002829
-0.002802
-0.002758
-0.002710
-0.002729
-0.002655
-0.002642
-0.002650
-0.002671
-0.002684
-0.002632
-0.002574
-0.002543
-0.002453
-0.002369
-0.002335
-0.002327
-0.002304
-0.002343
-0.002461
-0.002545
-0.002571
-0.002621
-0.002647
-0.002692
-0.002595
-0.002511
-0.002414
-0.002309
-0.002238
-0.002028
-0.001921
-0.001879
-0.001845
-0.001850
-0.001782
-0.001753
-0.001677
-0.001650
-0.001635
-0.001580
-0.001454
-0.001399
-0.001417
-0.001406
-0.001475
-0.001538
-0.001574
-0.001582
-0.001645
-0.001650
-0.001711
-0.001795
-0.001826
-0.001871
-0.001871
-0.001897
-0.001884
-0.001863
-0.001805
-0.001721
-0.001598
-0.001527
-0.001446
-0.001383
-0.001362
-0.001383
-0.001372
-0.001409
-0.001412
-0.001417
-0.001420
-0.001454
-0.001475
-0.001451
-0.001438
-0.001488
-0.001469
-0.001430
-0.001420
-0.001438
-0.001425
-0.001388
-0.001396
-0.001414
-0.001430
-0.001409
-0.001364
-0.001307
-0.001191
-0.001139
-0.001060
-0.001002
-0.001008
-0.000942
-0.000966
-0.000963
-0.000884
-0.000911
-0.001000
-0.001092
-0.001152
-0.001194
-0.001236
-0.001278
-0.001262
-0.001241
-0.001136
-0.001084
-0.000984
-0.000871
-0.000811
-0.000790
-0.000740
-0.000714
-0.000708
-0.000724
-0.000695
-0.000708
-0.000740
-0.000808
-0.000837
-0.000916
-0.000971
-0.001005
-0.001057
-0.001042
-0.001036
-0.000979
-0.000937
-0.000858
-0.000819
-0.000795
-0.000698
-0.000674
-0.000667
-0.000695
-0.000706
-0.000729
-0.000740
-0.000761
-0.000787
-0.000816
-0.000832
-0.000832
-0.000806
-0.000806
-0.000795
-0.000816
-0.000866
-0.000861
-0.000876
-0.000855
-0.000821
-0.000782
-0.000785
-0.000766
-0.000740
-0.000732
-0.000680
-0.000669
-0.000648
-0.000651
-0.000687
-0.000693
-0.000659
-0.000651
-0.000711
-0.000743
-0.000753
-0.000743
-0.000766
-0.000761
-0.000750
-0.000695
-0.000651
-0.000567
-0.000501
-0.000422
-0.000365
-0.000352
-0.000336
-0.000318
-0.000339
-0.000344
-0.000399
-0.000443
-0.000506
-0.000562
-0.000651
-0.000695
-0.000808
-0.000871
-0.000884
-0.000908
-0.000845
-0.000816
-0.000716
-0.000640
-0.000538
-0.000496
-0.000415
-0.000360
-0.000323
-0.000341
-0.000299
-0.000299
-0.000276
-0.000262
-0.000318
-0.000328
-0.000433
-0.000472
-0.000478
-0.000475
-0.000546
-0.000554
-0.000569
-0.000564
-0.000538
-0.000530
-0.000478
-0.000488
-0.000499
-0.000470
-0.000499
-0.000470
-0.000459
-0.000454
-0.000433
-0.000404
-0.000409
-0.000409
-0.000457
-0.000464
-0.000509
-0.000572
-0.000567
-0.000577
-0.000604
-0.000632
-0.000593
-0.000611
-0.000580
-0.000520
-0.000488
-0.000386
-0.000352
-0.000320
-0.000289
-0.000281
-0.000260
-0.000276
-0.000283
-0.000286
-0.000310
-0.000402
-0.000501
-0.000530
-0.000596
-0.000627
-0.000640
-0.000667
-0.000674
-0.000677
-0.000611
-0.000554
-0.000488
-0.000412
-0.000391
-0.000352
-0.000349
-0.000302
-0.000260
-0.000255
-0.000273
-0.000307
-0.000318
-0.000299
-0.000294
-0.000276
-0.000270
-0.000283
-0.000283
-0.000360
-0.000381
-0.000396
-0.000430
-0.000454
-0.000443
-0.000425
-0.000420
-0.000381
-0.000339
-0.000299
-0.000325
-0.000365
-0.000383
-0.000344
-0.000336
-0.000354
-0.000357
-0.000360
-0.000367
-0.000412
-0.000383
-0.000375
-0.000417
-0.000433
-0.000470
-0.000475
-0.000438
-0.000388
-0.000344
-0.000257
-0.000215
-0.000199
-0.000192
-0.000184
-0.000192
-0.000228
-0.000213
-0.000234
-0.000262
-0.000325
-0.000354
-0.000383
-0.000417
-0.000475
-0.000446
-0.000436
-0.000491
-0.000541
-0.000533
-0.000483
-0.000412
-0.000349
-0.000299
-0.000186
-0.000165
-0.000160
-0.000142
-0.000118
-0.000152
-0.000186
-0.000234
-0.000283
-0.000304
-0.000362
-0.000378
-0.000370
-0.000399
-0.000394
-0.000375
-0.000336
-0.000333
-0.000407
-0.000344
-0.000307
-0.000262
-0.000249
-0.000194
-0.000113
-0.000144
-0.000171
-0.000186
-0.000205
-0.000234
-0.000236
-0.000260
-0.000234
-0.000260
-0.000344
-0.000425
-0.000433
-0.000441
-0.000457
-0.000412
-0.000357
-0.000354
-0.000388
-0.000344
-0.000344
-0.000346
-0.000373
-0.000310
-0.000310
-0.000291
-0.000236
-0.000207
-0.000178
-0.000192
-0.000257
-0.000257
-0.000281
-0.000344
-0.000383
-0.000375
-0.000331
-0.000341
-0.000344
-0.000302
-0.000262
-0.000213
-0.000160
-0.000136
-0.000076
-0.000079
-0.000058
-0.000021
-0.000055
-0.000068
-0.000105
-0.000142
-0.000192
-0.000228
-0.000315
-0.000349
-0.000352
-0.000388
-0.000383
-0.000341
-0.000307
-0.000299
-0.000273
-0.000255
-0.000199
-0.000189
-0.000213
-0.000171
-0.000168
-0.000165
-0.000150
-0.000121
-0.000105
-0.000116
-0.000116
-0.000155
-0.000181
-0.000218
-0.000262
-0.000302
-0.000341
-0.000352
-0.000394
-0.000378
-0.000323
-0.000302
-0.000297
-0.000278
-0.000236
-0.000218
-0.000157
-0.000129
-0.000081
-0.000074
-0.000081
-0.000084
-0.000108
-0.000087
-0.000092
-0.000126
-0.000176
-0.000189
-0.000202
-0.000234
-0.000239
-0.000236
-0.000249
-0.000255
-0.000281
-0.000249
-0.000207
-0.000220
-0.000189
-0.000176
-0.000168
-0.000150
-0.000097
-0.000063
-0.000063
-0.000108
-0.000105
-0.000118
-0.000197
-0.000184
-0.000184
-0.000247
-0.000289
-0.000299
-0.000325
-0.000318
-0.000352
-0.000352
-0.000297
-0.000281
-0.000281
-0.000241
-0.000202
-0.000197
-0.000168
-0.000192
-0.000150
-0.000131
-0.000168
-0.000168
-0.000155
-0.000199
-0.000236
-0.000244
-0.000244
-0.000234
-0.000255
-0.000228
-0.000231
-0.000202
-0.000210
-0.000207
-0.000171
-0.000173
-0.000168
-0.000147
-0.000134
-0.000116
-0.000144
-0.000147
-0.000113
-0.000129
-0.000102
-0.000081
-0.000102
-0.000134
-0.000136
-0.000157
-0.000160
-0.000199
-0.000186
-0.000213
-0.000197
-0.000207
-0.000189
-0.000192
-0.000171
-0.000152
-0.000134
-0.000142
-0.000110
-0.000160
-0.000123
-0.000102
-0.000108
-0.000100
-0.000079
-0.000126
-0.000173
-0.000168
-0.000215
-0.000210
-0.000215
-0.000239
-0.000226
-0.000210
-0.000178
-0.000157
-0.000147
-0.000152
-0.000100
-0.000131
-0.000084
-0.000063
-0.000055
-0.000013
-0.000008
-0.000053
-0.000050
-0.000047
-0.000060
-0.000074
-0.000068
-0.000129
-0.000152
-0.000176
-0.000144
-0.000142
-0.000207
-0.000215
-0.000173
-0.000160
-0.000173
-0.000176
-0.000126
-0.000084
-0.000118
-0.000116
-0.000076
-0.000076
-0.000165
-0.000142
-0.000100
-0.000163
-0.000165
-0.000189
-0.000171
-0.000147
-0.000186
-0.000118
-0.000084
-0.000087
-0.000089
-0.000084
-0.000100
-0.000081
-0.000081
-0.000055
-0.000026
-0.000013
-0.000055
-0.000042
-0.000034
-0.000018
-0.000074
-0.000047
-0.000084
-0.000097
-0.000139
-0.000168
-0.000139
-0.000136
-0.000134
-0.000139
-0.000108
-0.000097
-0.000029
-0.000029
0.000018
0.000018
-0.000013
-0.000024
-0.000018
-0.000013
-0.000003
-0.000003
-0.000008
-0.000016
-0.000071
-0.000084
-0.000058
-0.000118
-0.000176
-0.000202
-0.000234
-0.000236
-0.000194
-0.000171
-0.000139
-0.000139
-0.000123
-0.000074
-0.000021
-0.000016
-0.000003
0.000029
0.000039
0.000003
-0.000058
-0.000089
-0.000129
-0.000168
-0.000165
-0.000152
-0.000171
-0.000152
-0.000150
-0.000142
-0.000131
-0.000126
-0.000126
-0.000126
-0.000105
-0.000126
-0.000097
-0.000042
-0.000008
-0.000037
-0.000084
-0.000110
-0.000102
-0.000100
-0.000126
-0.000129
-0.000121
-0.000121
-0.000134
-0.000136
-0.000123
-0.000092
-0.000110
-0.000079
-0.000076
-0.000063
-0.000105
-0.000116
-0.000068
-0.000076
-0.000071
-0.000068
-0.000029
-0.000042
-0.000050
-0.000053
-0.000074
-0.000081
-0.000084
-0.000089
-0.000089
-0.000092
-0.000089
-0.000076
-0.000068
-0.000095
-0.000102
-0.000102
-0.000076
-0.000123
-0.000131
-0.000113
-0.000050
-0.000058
-0.000045
-0.000011
-0.000047
-0.000013
-0.000011
-0.000016
-0.000034
-0.000055
-0.000066
-0.000032
-0.000060
-0.000042
-0.000060
-0.000100
-0.000092
-0.000118
-0.000108
-0.000126
-0.000136
-0.000160
-0.000136
-0.000092
-0.000102
-0.000095
-0.000063
-0.000058
-0.000039
0.000008
0.000018
0.000026
0.000018
-0.000029
-0.000074
-0.000076
-0.000071
-0.000055
-0.000055
-0.000084
-0.000071
-0.000102
-0.000131
-0.000126
-0.000121
-0.000139
-0.000152
-0.000139
-0.000076
-0.000092
-0.000047
-0.000016
-0.000011
0.000008
0.000024
-0.000008
-0.000016
-0.000047
-0.000060
-0.000039
-0.000011
-0.000050
-0.000039
-0.000047
-0.000042
-0.000045
-0.000055
-0.000005
-0.000003
-0.000013
-0.000029
-0.000034
0.000003
-0.000000
0.000005
0.000026
0.000031
0.000034
0.000003
0.000021
0.000045
-0.000000
-0.000037
-0.000029
-0.000050
-0.000087
-0.000084
-0.000087
-0.000066
-0.000039
-0.000074
-0.000081
-0.000047
-0.000024
-0.000039
-0.000018
-0.000021
-0.000029
-0.000050
-0.000060
0.000010
-0.000016
-0.000037
-0.000039
-0.000050
-0.000092
-0.000121
-0.000108
-0.000087
-0.000108
-0.000123
-0.000121
-0.000081
-0.000097
-0.000110
-0.000092
-0.000055
-0.000074
-0.000084
-0.000105
-0.000097
-0.000105
-0.000102
-0.000050
-0.000037
-0.000055
-0.000055
-0.000092
-0.000047
-0.000026
-0.000026
0.000003
0.000013
0.000010
0.000024
0.000042
0.000018
-0.000011
-0.000021
-0.000021
0.000026
0.000008
0.000008
0.000060
0.000052
0.000026
0.000026
0.000026
0.000010
0.000008
-0.000050
-0.000039
-0.000037
-0.000081
-0.000102
-0.000066
-0.000055
-0.000066
-0.000047
-0.000042
-0.000045
-0.000029
-0.000011
-0.000011
0.000024
0.000021
-0.000024
-0.000039
-0.000058
-0.000097
-0.000081
-0.000110
-0.000074
-0.000060
-0.000097
-0.000063
-0.000037
-0.000045
-0.000042
-0.000011
0.000037
-0.000008
0.000016
0.000073
0.000100
0.000076
0.000076
0.000087
0.000079
0.000055
0.000058
0.000058
0.000029
0.000026
0.000003
-0.000003
-0.000003
-0.000016
-0.000055
-0.000087
-0.000116
-0.000102
-0.000081
-0.000053
-0.000000
0.000008
0.000031
0.000047
0.000005
0.000029
0.000037
0.000013
0.000045
0.000013
0.000013
0.000016
0.000024
0.000047
-0.000021
-0.000011
-0.000026
-0.000037
-0.000021
-0.000008
0.000013
0.000045
0.000058
0.000031
0.000010
0.000018
0.000039
0.000013
0.000045
0.000034
-0.000008
0.000016
0.000029
0.000024
0.000042
0.000050
0.000021
-0.000021
-0.000042
-0.000063
-0.000032
-0.000068
-0.000060
-0.000021
-0.000034
-0.000011
-0.000034
-0.000047
-0.000018
-0.000011
-0.000024
-0.000042
-0.000032
-0.000026
-0.000058
-0.000055
-0.000039
-0.000053
-0.000042
-0.000039
-0.000042
-0.000055
-0.000071
-0.000063
-0.000084
-0.000053
-0.000021
-0.000011
0.000045
0.000039
0.000024
0.000045
0.000045
0.000034
-0.000013
-0.000021
-0.000008
-0.000005
0.000013
0.000016
0.000003
0.000010
0.000016
0.000034
0.000063
0.000034
0.000016
-0.000000
0.000016
0.000021
0.000013
0.000021
0.000052
0.000055
0.000052
0.000047
0.000071
0.000052
0.000071
0.000042
0.000024
-0.000011
-0.000034
-0.000021
-0.000045
-0.000037
-0.000005
-0.000016
0.000003
0.000031
0.000026
0.000008
0.000045
0.000016
-0.000016
0.000008
0.000018
0.000008
0.000047
0.000068
0.000052
0.000010
0.000029
0.000024
0.000042
0.000045
0.000029
-0.000011
-0.000074
-0.000100
-0.000129
-0.000095
-0.000037
-0.000039
-0.000045
-0.000029
0.000010
0.000013
0.000039
0.000052
0.000063
0.000068
0.000013
0.000039
0.000037
0.000008
0.000026
-0.000005
-0.000021
0.000003
0.000003
0.000005
0.000042
0.000037
-0.000021
0.000034
0.000039
0.000055
0.000076
0.000068
0.000092
0.000034
0.000052
0.000039
0.000058
0.000008
-0.000016
-0.000045
-0.000058
