Start time = 18:26:48.206054
End time = 18:26:58.186995
laser_energy = 7.040
channel_1_dial = 850
channel_2_dial = 850
channel_3_dial = 850
channel_4_dial = 850
NG-1-LII = 0
NG-3-15399 = 0
NG-4-LII = 0
NG-4-15399 = 0
NG-5-LII = 0
NG-5-15399 = 0
NG-9-LII = 0
NG-9-15399 = 0
NG-10-01 = 0
NG-11-15399 = 0
NG-12-15399 = 0
NG-4A-2001 = 0
NG-4B-2001 = 0
NG-5A-2001 = 0
NG-3-2001 = 0
NG-5B-2001 = 0
NG-1-2001 = 0
NG-9-2001 = 0
NG-10-2001 = 0
NG-11-2001 = 0
NG-12-2001 = 0
AND-200SN09 = 0
AND-100SN09 = 0
AND-050SN09 = 0
AND-030SN09 = 0
AND-015SN05 = 0
PMT#1Voltage = 0
PMT#2Voltage = 0
t0(sec) = 0.000000E+0
dt(sec) = 4.000000E-10
F1:INSP "
DESCRIPTOR_NAME    : WAVEDESC           
TEMPLATE_NAME      : LECROY_2_3         
COMM_TYPE          : word               
COMM_ORDER         : HIFIRST            
WAVE_DESCRIPTOR    : 346                
USER_TEXT          : 0                  
RES_DESC1          : 0                  
TRIGTIME_ARRAY     : 0                  
RIS_TIME_ARRAY     : 0                  
RES_ARRAY1         : 0                  
WAVE_ARRAY_1       : 10002              
WAVE_ARRAY_2       : 0                  
RES_ARRAY2         : 0                  
RES_ARRAY3         : 0                  
INSTRUMENT_NAME    : LECROYHDO6104      
INSTRUMENT_NUMBER  : 6308               
TRACE_LABEL        :                    
RESERVED1          : 5001               
RESERVED2          : 0                  
WAVE_ARRAY_COUNT   : 5001               
PNTS_PER_SCREEN    : 5000               
FIRST_VALID_PNT    : 0                  
LAST_VALID_PNT     : 5000               
FIRST_POINT        : 0                  
SPARSING_FACTOR    : 1                  
SEGMENT_INDEX      : 0                  
SUBARRAY_COUNT     : 1                  
SWEEPS_PER_ACQ     : 200                
POINTS_PER_PAIR    : 0                  
PAIR_OFFSET        : 0                  
VERTICAL_GAIN      : 2.6238e-006        
VERTICAL_OFFSET    : 6.5501e-002        
MAX_VALUE          : 3.0816e+004        
MIN_VALUE          : 1.3388e+004        
NOMINAL_BITS       : 16                 
NOM_SUBARRAY_COUNT : 1                  
HORIZ_INTERVAL     : 4.0000e-010        
HORIZ_OFFSET       : -2.00000000e-007   
PIXEL_OFFSET       : -2.00000000e-007   
VERTUNIT           : Unit Name = V
HORUNIT            : Unit Name = S
HORIZ_UNCERTAINTY  : 1.0000e-012        
TRIGGER_TIME       : Date = APR 17, 2024, Time = 19:26:44.076812015
ACQ_DURATION       : 1.0049e+001        
RECORD_TYPE        : single_sweep       
PROCESSING_DONE    : no_processing      
RESERVED5          : 0                  
RIS_SWEEPS         : 1                  
TIMEBASE           : 200_ns/div         
VERT_COUPLING      : DC_50_Ohms         
PROBE_ATT          : 1.0000e+000        
FIXED_VERT_GAIN    : 5_mV/div           
BANDWIDTH_LIMIT    : off                
VERTICAL_VERNIER   : 1.1600e+000        
ACQ_VERT_OFFSET    : 0.0000e+000        
WAVE_SOURCE        : UNKNOWN            
"
0.000131
0.000134
0.000134
0.000136
0.000121
0.000147
0.000131
0.000149
0.000121
0.000152
0.000149
0.000134
0.000142
0.000155
0.000139
0.000139
0.000136
0.000152
0.000123
0.000157
0.000118
0.000144
0.000131
0.000126
0.000136
0.000144
0.000149
0.000160
0.000129
0.000142
0.000113
0.000134
0.000134
0.000152
0.000147
0.000149
0.000147
0.000147
0.000160
0.000181
0.000152
0.000173
0.000121
0.000121
0.000149
0.000147
0.000149
0.000123
0.000121
0.000152
0.000102
0.000110
0.000131
0.000163
0.000123
0.000108
0.000134
0.000134
0.000157
0.000139
0.000118
0.000157
0.000115
0.000118
0.000110
0.000108
0.000073
0.000089
0.000108
0.000110
0.000113
0.000126
0.000147
0.000178
0.000113
0.000136
0.000129
0.000163
0.000121
0.000149
0.000149
0.000115
0.000134
0.000118
0.000113
0.000139
0.000126
0.000136
0.000149
0.000118
0.000100
0.000105
0.000115
0.000105
0.000094
0.000081
0.000100
0.000108
0.000102
0.000100
0.000123
0.000131
0.000129
0.000142
0.000142
0.000134
0.000105
0.000131
0.000123
0.000139
0.000155
0.000131
0.000129
0.000144
0.000134
0.000123
0.000071
0.000087
0.000071
0.000094
0.000110
0.000108
0.000129
0.000097
0.000110
0.000155
0.000113
0.000113
0.000142
0.000157
0.000139
0.000176
0.000163
0.000149
0.000163
0.000147
0.000160
0.000157
0.000149
0.000165
0.000142
0.000123
0.000134
0.000139
0.000118
0.000126
0.000087
0.000089
0.000094
0.000084
0.000110
0.000118
0.000115
0.000102
0.000079
0.000071
0.000092
0.000087
0.000079
0.000129
0.000113
0.000118
0.000100
0.000089
0.000110
0.000115
0.000066
0.000092
0.000092
0.000102
0.000100
0.000092
0.000115
0.000108
0.000084
0.000131
0.000139
0.000173
0.000157
0.000149
0.000139
0.000155
0.000144
0.000144
0.000152
0.000152
0.000176
0.000149
0.000144
0.000152
0.000110
0.000118
0.000129
0.000139
0.000139
0.000134
0.000155
0.000123
0.000108
0.000126
0.000123
0.000102
0.000134
0.000126
0.000126
0.000152
0.000115
0.000102
0.000087
0.000110
0.000092
0.000110
0.000105
0.000129
0.000123
0.000097
0.000087
0.000118
0.000092
0.000102
0.000126
0.000115
0.000144
0.000139
0.000149
0.000173
0.000155
0.000118
0.000100
0.000115
0.000089
0.000118
0.000126
0.000147
0.000131
0.000134
0.000100
0.000139
0.000129
0.000134
0.000152
0.000108
0.000121
0.000115
0.000113
0.000121
0.000087
0.000084
0.000079
0.000110
0.000115
0.000115
0.000139
0.000126
0.000131
0.000131
0.000113
0.000134
0.000113
0.000087
0.000129
0.000110
0.000134
0.000139
0.000110
0.000129
0.000097
0.000100
0.000136
0.000129
0.000136
0.000160
0.000149
0.000160
0.000105
0.000118
0.000102
0.000105
0.000110
0.000102
0.000092
0.000126
0.000123
0.000131
0.000129
0.000139
0.000149
0.000123
0.000136
0.000144
0.000121
0.000131
0.000100
0.000152
0.000121
0.000115
0.000139
0.000149
0.000136
0.000157
0.000136
0.000165
0.000129
0.000131
0.000134
0.000152
0.000129
0.000131
0.000142
0.000121
0.000121
0.000100
0.000113
0.000113
0.000108
0.000100
0.000131
0.000123
0.000136
0.000115
0.000105
0.000110
0.000089
0.000108
0.000108
0.000108
0.000097
0.000058
0.000081
0.000136
0.000089
0.000100
0.000118
0.000142
0.000155
0.000168
0.000163
0.000157
0.000144
0.000152
0.000144
0.000160
0.000115
0.000136
0.000155
0.000173
0.000165
0.000170
0.000173
0.000152
0.000136
0.000129
0.000147
0.000139
0.000115
0.000134
0.000110
0.000155
0.000126
0.000121
0.000157
0.000149
0.000115
0.000157
0.000147
0.000181
0.000165
0.000157
0.000176
0.000155
0.000110
0.000129
0.000147
0.000118
0.000121
0.000105
0.000118
0.000149
0.000121
0.000123
0.000134
0.000149
0.000129
0.000142
0.000134
0.000134
0.000142
0.000131
0.000131
0.000126
0.000102
0.000105
0.000092
0.000113
0.000129
0.000110
0.000113
0.000157
0.000121
0.000121
0.000136
0.000121
0.000097
0.000097
0.000094
0.000105
0.000089
0.000121
0.000144
0.000170
0.000136
0.000139
0.000118
0.000126
0.000115
0.000110
0.000155
0.000136
0.000126
0.000118
0.000147
0.000131
0.000110
0.000094
0.000094
0.000102
0.000089
0.000076
0.000092
0.000129
0.000102
0.000097
0.000097
0.000118
0.000092
0.000149
0.000191
0.000233
0.000194
0.000110
0.000100
0.000055
0.000058
0.000068
0.000076
0.000092
0.000097
0.000152
0.000160
0.000202
0.000189
0.000142
0.000134
0.000058
0.000003
0.000016
0.000029
0.000100
0.000097
0.000113
0.000155
0.000129
0.000163
0.000220
0.000231
0.000254
0.000265
0.000223
0.000157
0.000136
0.000066
0.000052
0.000066
0.000118
0.000092
0.000073
0.000066
0.000087
0.000055
0.000092
0.000100
0.000089
0.000102
0.000126
0.000108
0.000170
0.000170
0.000189
0.000170
0.000186
0.000191
0.000181
0.000181
0.000176
0.000102
0.000063
0.000034
0.000018
0.000016
0.000029
0.000042
0.000068
0.000021
0.000039
0.000034
0.000055
0.000147
0.000197
0.000262
0.000357
0.000370
0.000346
0.000270
0.000268
0.000223
0.000115
0.000071
0.000047
-0.000050
-0.000063
-0.000066
-0.000055
-0.000013
0.000055
0.000087
0.000118
0.000157
0.000202
0.000197
0.000189
0.000170
0.000147
0.000129
0.000121
0.000060
0.000066
0.000089
0.000123
0.000144
0.000110
0.000123
0.000152
0.000136
0.000207
0.000228
0.000241
0.000207
0.000194
0.000173
0.000155
0.000115
0.000079
0.000081
0.000052
-0.000016
-0.000034
0.000010
0.000016
-0.000066
-0.000142
-0.000336
-0.000651
-0.001199
-0.001981
-0.003046
-0.004468
-0.006221
-0.008063
-0.009829
-0.011466
-0.013027
-0.014218
-0.015242
-0.016029
-0.016669
-0.017149
-0.017370
-0.017328
-0.017233
-0.017215
-0.017144
-0.017152
-0.016889
-0.016323
-0.015769
-0.015339
-0.014927
-0.014607
-0.014266
-0.013919
-0.013481
-0.013048
-0.012665
-0.012327
-0.011944
-0.011490
-0.011044
-0.010556
-0.010136
-0.009721
-0.009448
-0.009304
-0.009257
-0.009115
-0.009015
-0.008900
-0.008800
-0.008677
-0.008451
-0.008236
-0.008039
-0.007853
-0.007641
-0.007478
-0.007344
-0.007244
-0.007231
-0.007208
-0.007192
-0.007192
-0.007257
-0.007307
-0.007368
-0.007420
-0.007488
-0.007528
-0.007543
-0.007572
-0.007567
-0.007572
-0.007567
-0.007444
-0.007257
-0.007132
-0.007097
-0.007069
-0.006958
-0.006843
-0.006769
-0.006746
-0.006662
-0.006515
-0.006410
-0.006337
-0.006116
-0.005896
-0.005780
-0.005796
-0.005707
-0.005660
-0.005612
-0.005465
-0.005360
-0.005329
-0.005221
-0.005151
-0.005022
-0.004880
-0.004749
-0.004665
-0.004605
-0.004571
-0.004592
-0.004534
-0.004521
-0.004550
-0.004547
-0.004555
-0.004568
-0.004560
-0.004521
-0.004453
-0.004419
-0.004426
-0.004487
-0.004573
-0.004628
-0.004529
-0.004366
-0.004214
-0.004140
-0.004054
-0.004022
-0.004049
-0.004080
-0.003970
-0.003931
-0.003952
-0.003972
-0.004030
-0.004098
-0.004133
-0.004159
-0.004125
-0.004119
-0.004043
-0.003983
-0.003839
-0.003718
-0.003631
-0.003576
-0.003484
-0.003445
-0.003414
-0.003366
-0.003293
-0.003254
-0.003198
-0.003225
-0.003212
-0.003201
-0.003151
-0.003025
-0.002941
-0.002918
-0.002941
-0.002894
-0.002815
-0.002745
-0.002613
-0.002577
-0.002592
-0.002689
-0.002894
-0.003172
-0.003366
-0.003442
-0.003471
-0.003498
-0.003490
-0.003445
-0.003411
-0.003335
-0.003175
-0.003004
-0.002884
-0.002773
-0.002724
-0.002831
-0.002926
-0.002952
-0.002962
-0.002960
-0.002894
-0.002847
-0.002802
-0.002776
-0.002797
-0.002805
-0.002710
-0.002634
-0.002619
-0.002532
-0.002448
-0.002498
-0.002564
-0.002624
-0.002703
-0.002771
-0.002779
-0.002724
-0.002666
-0.002653
-0.002608
-0.002558
-0.002600
-0.002608
-0.002616
-0.002582
-0.002466
-0.002327
-0.002217
-0.002191
-0.002123
-0.002146
-0.002249
-0.002346
-0.002364
-0.002438
-0.002561
-0.002613
-0.002577
-0.002556
-0.002503
-0.002369
-0.002246
-0.002149
-0.002123
-0.002102
-0.002026
-0.002002
-0.001965
-0.001915
-0.001960
-0.002115
-0.002301
-0.002385
-0.002382
-0.002380
-0.002304
-0.002201
-0.002157
-0.002212
-0.002141
-0.002028
-0.001950
-0.001947
-0.001910
-0.001897
-0.001952
-0.002031
-0.002115
-0.002146
-0.002141
-0.002178
-0.002123
-0.002081
-0.002028
-0.002131
-0.002201
-0.002165
-0.002154
-0.002183
-0.002146
-0.002031
-0.001973
-0.001965
-0.001960
-0.001973
-0.001992
-0.002136
-0.002173
-0.002141
-0.002086
-0.002026
-0.001889
-0.001816
-0.001755
-0.001750
-0.001755
-0.001813
-0.001934
-0.002054
-0.002136
-0.002152
-0.002102
-0.002018
-0.001939
-0.001866
-0.001842
-0.001821
-0.001818
-0.001742
-0.001745
-0.001724
-0.001648
-0.001548
-0.001427
-0.001414
-0.001464
-0.001519
-0.001616
-0.001703
-0.001758
-0.001737
-0.001703
-0.001753
-0.001813
-0.001821
-0.001852
-0.001887
-0.001868
-0.001863
-0.001845
-0.001795
-0.001727
-0.001664
-0.001543
-0.001475
-0.001472
-0.001506
-0.001527
-0.001569
-0.001577
-0.001582
-0.001585
-0.001635
-0.001666
-0.001671
-0.001679
-0.001692
-0.001682
-0.001629
-0.001598
-0.001616
-0.001601
-0.001580
-0.001556
-0.001527
-0.001488
-0.001483
-0.001438
-0.001425
-0.001467
-0.001503
-0.001490
-0.001462
-0.001451
-0.001454
-0.001422
-0.001380
-0.001414
-0.001493
-0.001559
-0.001656
-0.001698
-0.001732
-0.001734
-0.001779
-0.001766
-0.001753
-0.001716
-0.001671
-0.001640
-0.001606
-0.001540
-0.001454
-0.001456
-0.001417
-0.001393
-0.001388
-0.001378
-0.001383
-0.001378
-0.001417
-0.001372
-0.001362
-0.001343
-0.001364
-0.001322
-0.001246
-0.001244
-0.001320
-0.001322
-0.001338
-0.001320
-0.001309
-0.001299
-0.001309
-0.001299
-0.001291
-0.001238
-0.001149
-0.001097
-0.001115
-0.001168
-0.001262
-0.001294
-0.001325
-0.001283
-0.001259
-0.001246
-0.001325
-0.001417
-0.001477
-0.001430
-0.001372
-0.001288
-0.001144
-0.001094
-0.001105
-0.001107
-0.001155
-0.001238
-0.001288
-0.001322
-0.001380
-0.001380
-0.001412
-0.001459
-0.001459
-0.001446
-0.001443
-0.001393
-0.001385
-0.001359
-0.001330
-0.001299
-0.001262
-0.001262
-0.001275
-0.001278
-0.001241
-0.001215
-0.001210
-0.001136
-0.001128
-0.001170
-0.001202
-0.001283
-0.001241
-0.001252
-0.001244
-0.001244
-0.001301
-0.001336
-0.001364
-0.001375
-0.001362
-0.001294
-0.001244
-0.001113
-0.001094
-0.001050
-0.001047
-0.001068
-0.001115
-0.001131
-0.001136
-0.001126
-0.001126
-0.001105
-0.001115
-0.001131
-0.001157
-0.001194
-0.001312
-0.001362
-0.001375
-0.001336
-0.001338
-0.001275
-0.001165
-0.001115
-0.001089
-0.001065
-0.001068
-0.001105
-0.001215
-0.001204
-0.001178
-0.001113
-0.001105
-0.001105
-0.001120
-0.001176
-0.001257
-0.001273
-0.001309
-0.001254
-0.001212
-0.001139
-0.001052
-0.001015
-0.001021
-0.001010
-0.001036
-0.001042
-0.001068
-0.001031
-0.001000
-0.001026
-0.001013
-0.000953
-0.000994
-0.000973
-0.000984
-0.000994
-0.001034
-0.001029
-0.001034
-0.001094
-0.001102
-0.001078
-0.001107
-0.001144
-0.001176
-0.001094
-0.001034
-0.000971
-0.000876
-0.000811
-0.000842
-0.000853
-0.000892
-0.000937
-0.000960
-0.000955
-0.000903
-0.000942
-0.000942
-0.000900
-0.000950
-0.000997
-0.001057
-0.001081
-0.001157
-0.001134
-0.001115
-0.001081
-0.001078
-0.001081
-0.001126
-0.001128
-0.001034
-0.000939
-0.000934
-0.000900
-0.000866
-0.000900
-0.000937
-0.000945
-0.000934
-0.000981
-0.001047
-0.001089
-0.001131
-0.001094
-0.001065
-0.001036
-0.001018
-0.001005
-0.001071
-0.001063
-0.001060
-0.000981
-0.000973
-0.000934
-0.000858
-0.000842
-0.000855
-0.000785
-0.000729
-0.000687
-0.000753
-0.000764
-0.000785
-0.000827
-0.000848
-0.000821
-0.000816
-0.000792
-0.000748
-0.000729
-0.000722
-0.000706
-0.000758
-0.000829
-0.000892
-0.000892
-0.000890
-0.000829
-0.000800
-0.000740
-0.000706
-0.000643
-0.000672
-0.000714
-0.000750
-0.000806
-0.000837
-0.000876
-0.000879
-0.000924
-0.001013
-0.000987
-0.000981
-0.000989
-0.000960
-0.000879
-0.000903
-0.000916
-0.000916
-0.000926
-0.000973
-0.000916
-0.000861
-0.000819
-0.000750
-0.000708
-0.000659
-0.000622
-0.000617
-0.000643
-0.000687
-0.000716
-0.000769
-0.000743
-0.000743
-0.000687
-0.000711
-0.000711
-0.000708
-0.000748
-0.000811
-0.000855
-0.000842
-0.000785
-0.000795
-0.000779
-0.000761
-0.000727
-0.000677
-0.000653
-0.000690
-0.000727
-0.000837
-0.000866
-0.000900
-0.000897
-0.000869
-0.000824
-0.000777
-0.000701
-0.000690
-0.000685
-0.000667
-0.000640
-0.000646
-0.000648
-0.000606
-0.000604
-0.000643
-0.000659
-0.000690
-0.000667
-0.000729
-0.000764
-0.000811
-0.000795
-0.000785
-0.000771
-0.000716
-0.000674
-0.000743
-0.000806
-0.000806
-0.000811
-0.000806
-0.000727
-0.000764
-0.000727
-0.000748
-0.000745
-0.000758
-0.000687
-0.000601
-0.000551
-0.000527
-0.000527
-0.000577
-0.000630
-0.000661
-0.000695
-0.000771
-0.000803
-0.000800
-0.000800
-0.000840
-0.000766
-0.000735
-0.000680
-0.000643
-0.000648
-0.000604
-0.000530
-0.000546
-0.000509
-0.000467
-0.000443
-0.000480
-0.000541
-0.000530
-0.000567
-0.000611
-0.000617
-0.000625
-0.000627
-0.000643
-0.000609
-0.000630
-0.000638
-0.000656
-0.000695
-0.000682
-0.000577
-0.000588
-0.000527
-0.000520
-0.000564
-0.000585
-0.000559
-0.000611
-0.000632
-0.000682
-0.000708
-0.000750
-0.000719
-0.000690
-0.000685
-0.000750
-0.000750
-0.000745
-0.000792
-0.000792
-0.000745
-0.000764
-0.000743
-0.000669
-0.000625
-0.000590
-0.000580
-0.000596
-0.000554
-0.000546
-0.000496
-0.000449
-0.000433
-0.000493
-0.000491
-0.000535
-0.000543
-0.000569
-0.000651
-0.000701
-0.000750
-0.000774
-0.000761
-0.000750
-0.000722
-0.000677
-0.000706
-0.000693
-0.000648
-0.000567
-0.000520
-0.000436
-0.000404
-0.000402
-0.000433
-0.000501
-0.000509
-0.000562
-0.000609
-0.000635
-0.000625
-0.000659
-0.000640
-0.000627
-0.000632
-0.000706
-0.000732
-0.000706
-0.000667
-0.000617
-0.000541
-0.000467
-0.000449
-0.000449
-0.000415
-0.000422
-0.000430
-0.000433
-0.000472
-0.000464
-0.000506
-0.000546
-0.000527
-0.000517
-0.000475
-0.000527
-0.000543
-0.000527
-0.000538
-0.000556
-0.000504
-0.000535
-0.000562
-0.000598
-0.000588
-0.000583
-0.000533
-0.000530
-0.000509
-0.000478
-0.000451
-0.000485
-0.000493
-0.000604
-0.000572
-0.000596
-0.000664
-0.000640
-0.000622
-0.000617
-0.000577
-0.000548
-0.000535
-0.000480
-0.000470
-0.000457
-0.000441
-0.000433
-0.000459
-0.000443
-0.000409
-0.000443
-0.000464
-0.000464
-0.000443
-0.000478
-0.000530
-0.000522
-0.000509
-0.000543
-0.000562
-0.000556
-0.000567
-0.000551
-0.000590
-0.000604
-0.000564
-0.000593
-0.000556
-0.000504
-0.000459
-0.000454
-0.000402
-0.000407
-0.000391
-0.000373
-0.000370
-0.000381
-0.000391
-0.000478
-0.000504
-0.000509
-0.000520
-0.000504
-0.000501
-0.000514
-0.000541
-0.000577
-0.000562
-0.000548
-0.000512
-0.000525
-0.000493
-0.000506
-0.000527
-0.000525
-0.000556
-0.000554
-0.000551
-0.000598
-0.000548
-0.000517
-0.000506
-0.000451
-0.000451
-0.000470
-0.000483
-0.000548
-0.000572
-0.000585
-0.000577
-0.000598
-0.000520
-0.000496
-0.000443
-0.000436
-0.000446
-0.000446
-0.000449
-0.000504
-0.000454
-0.000438
-0.000417
-0.000443
-0.000462
-0.000457
-0.000451
-0.000467
-0.000470
-0.000467
-0.000409
-0.000420
-0.000428
-0.000394
-0.000438
-0.000454
-0.000412
-0.000462
-0.000425
-0.000430
-0.000462
-0.000522
-0.000483
-0.000506
-0.000504
-0.000493
-0.000501
-0.000535
-0.000538
-0.000514
-0.000493
-0.000462
-0.000417
-0.000396
-0.000373
-0.000412
-0.000412
-0.000436
-0.000441
-0.000496
-0.000478
-0.000480
-0.000485
-0.000454
-0.000459
-0.000525
-0.000562
-0.000562
-0.000530
-0.000506
-0.000470
-0.000459
-0.000409
-0.000433
-0.000388
-0.000409
-0.000451
-0.000422
-0.000425
-0.000488
-0.000472
-0.000464
-0.000472
-0.000556
-0.000556
-0.000527
-0.000520
-0.000501
-0.000454
-0.000459
-0.000459
-0.000530
-0.000499
-0.000483
-0.000470
-0.000446
-0.000470
-0.000451
-0.000425
-0.000451
-0.000443
-0.000378
-0.000354
-0.000357
-0.000394
-0.000383
-0.000373
-0.000357
-0.000325
-0.000325
-0.000336
-0.000354
-0.000354
-0.000360
-0.000402
-0.000428
-0.000443
-0.000475
-0.000446
-0.000457
-0.000478
-0.000472
-0.000514
-0.000517
-0.000535
-0.000543
-0.000512
-0.000483
-0.000433
-0.000402
-0.000354
-0.000370
-0.000386
-0.000378
-0.000407
-0.000409
-0.000415
-0.000441
-0.000422
-0.000404
-0.000373
-0.000360
-0.000370
-0.000404
-0.000422
-0.000407
-0.000375
-0.000325
-0.000307
-0.000286
-0.000220
-0.000268
-0.000278
-0.000304
-0.000304
-0.000336
-0.000310
-0.000270
-0.000239
-0.000249
-0.000289
-0.000352
-0.000378
-0.000425
-0.000383
-0.000402
-0.000386
-0.000381
-0.000396
-0.000404
-0.000360
-0.000381
-0.000365
-0.000341
-0.000346
-0.000360
-0.000375
-0.000394
-0.000396
-0.000412
-0.000402
-0.000375
-0.000360
-0.000394
-0.000362
-0.000367
-0.000354
-0.000360
-0.000331
-0.000336
-0.000278
-0.000312
-0.000320
-0.000297
-0.000307
-0.000354
-0.000328
-0.000315
-0.000286
-0.000333
-0.000299
-0.000294
-0.000268
-0.000278
-0.000320
-0.000281
-0.000307
-0.000304
-0.000278
-0.000294
-0.000278
-0.000331
-0.000346
-0.000349
-0.000383
-0.000420
-0.000441
-0.000475
-0.000438
-0.000420
-0.000407
-0.000394
-0.000331
-0.000312
-0.000294
-0.000312
-0.000297
-0.000307
-0.000302
-0.000299
-0.000297
-0.000367
-0.000391
-0.000362
-0.000399
-0.000402
-0.000375
-0.000310
-0.000291
-0.000283
-0.000268
-0.000244
-0.000276
-0.000291
-0.000265
-0.000278
-0.000289
-0.000328
-0.000331
-0.000383
-0.000422
-0.000472
-0.000493
-0.000509
-0.000504
-0.000517
-0.000493
-0.000449
-0.000433
-0.000399
-0.000388
-0.000396
-0.000383
-0.000396
-0.000378
-0.000365
-0.000352
-0.000320
-0.000255
-0.000244
-0.000178
-0.000171
-0.000168
-0.000171
-0.000147
-0.000186
-0.000178
-0.000192
-0.000226
-0.000257
-0.000307
-0.000336
-0.000331
-0.000386
-0.000407
-0.000415
-0.000430
-0.000412
-0.000428
-0.000402
-0.000378
-0.000383
-0.000341
-0.000331
-0.000339
-0.000315
-0.000318
-0.000365
-0.000339
-0.000370
-0.000399
-0.000378
-0.000378
-0.000430
-0.000407
