Start time = 18:29:32.739547
End time = 18:29:42.680047
laser_energy = 7.040
channel_1_dial = 850
channel_2_dial = 850
channel_3_dial = 850
channel_4_dial = 850
NG-1-LII = 0
NG-3-15399 = 0
NG-4-LII = 0
NG-4-15399 = 0
NG-5-LII = 0
NG-5-15399 = 0
NG-9-LII = 0
NG-9-15399 = 0
NG-10-01 = 0
NG-11-15399 = 0
NG-12-15399 = 0
NG-4A-2001 = 0
NG-4B-2001 = 0
NG-5A-2001 = 0
NG-3-2001 = 0
NG-5B-2001 = 0
NG-1-2001 = 0
NG-9-2001 = 0
NG-10-2001 = 0
NG-11-2001 = 0
NG-12-2001 = 0
AND-200SN09 = 0
AND-100SN09 = 0
AND-050SN09 = 0
AND-030SN09 = 0
AND-015SN05 = 0
PMT#1Voltage = 0
PMT#2Voltage = 0
t0(sec) = 0.000000E+0
dt(sec) = 4.000000E-10
F1:INSP "
DESCRIPTOR_NAME    : WAVEDESC           
TEMPLATE_NAME      : LECROY_2_3         
COMM_TYPE          : word               
COMM_ORDER         : HIFIRST            
WAVE_DESCRIPTOR    : 346                
USER_TEXT          : 0                  
RES_DESC1          : 0                  
TRIGTIME_ARRAY     : 0                  
RIS_TIME_ARRAY     : 0                  
RES_ARRAY1         : 0                  
WAVE_ARRAY_1       : 10002              
WAVE_ARRAY_2       : 0                  
RES_ARRAY2         : 0                  
RES_ARRAY3         : 0                  
INSTRUMENT_NAME    : LECROYHDO6104      
INSTRUMENT_NUMBER  : 6308               
TRACE_LABEL        :                    
RESERVED1          : 5001               
RESERVED2          : 0                  
WAVE_ARRAY_COUNT   : 5001               
PNTS_PER_SCREEN    : 5000               
FIRST_VALID_PNT    : 0                  
LAST_VALID_PNT     : 5000               
FIRST_POINT        : 0                  
SPARSING_FACTOR    : 1                  
SEGMENT_INDEX      : 0                  
SUBARRAY_COUNT     : 1                  
SWEEPS_PER_ACQ     : 200                
POINTS_PER_PAIR    : 0                  
PAIR_OFFSET        : 0                  
VERTICAL_GAIN      : 2.6238e-006        
VERTICAL_OFFSET    : 6.5501e-002        
MAX_VALUE          : 3.0816e+004        
MIN_VALUE          : 1.3388e+004        
NOMINAL_BITS       : 16                 
NOM_SUBARRAY_COUNT : 1                  
HORIZ_INTERVAL     : 4.0000e-010        
HORIZ_OFFSET       : -2.00000000e-007   
PIXEL_OFFSET       : -2.00000000e-007   
VERTUNIT           : Unit Name = V
HORUNIT            : Unit Name = S
HORIZ_UNCERTAINTY  : 1.0000e-012        
TRIGGER_TIME       : Date = APR 17, 2024, Time = 19:29:28.611162721
ACQ_DURATION       : 9.9989e+000        
RECORD_TYPE        : single_sweep       
PROCESSING_DONE    : no_processing      
RESERVED5          : 0                  
RIS_SWEEPS         : 1                  
TIMEBASE           : 200_ns/div         
VERT_COUPLING      : DC_50_Ohms         
PROBE_ATT          : 1.0000e+000        
FIXED_VERT_GAIN    : 5_mV/div           
BANDWIDTH_LIMIT    : off                
VERTICAL_VERNIER   : 1.1600e+000        
ACQ_VERT_OFFSET    : 0.0000e+000        
WAVE_SOURCE        : UNKNOWN            
"
0.000149
0.000108
0.000139
0.000136
0.000108
0.000149
0.000139
0.000149
0.000189
0.000142
0.000147
0.000123
0.000113
0.000129
0.000118
0.000142
0.000144
0.000123
0.000102
0.000105
0.000134
0.000108
0.000134
0.000115
0.000142
0.000149
0.000142
0.000142
0.000186
0.000178
0.000178
0.000163
0.000165
0.000176
0.000181
0.000126
0.000170
0.000152
0.000149
0.000136
0.000142
0.000121
0.000136
0.000105
0.000118
0.000147
0.000118
0.000149
0.000170
0.000134
0.000160
0.000126
0.000126
0.000142
0.000139
0.000108
0.000176
0.000163
0.000131
0.000147
0.000142
0.000118
0.000155
0.000144
0.000142
0.000170
0.000134
0.000139
0.000155
0.000126
0.000144
0.000160
0.000149
0.000168
0.000165
0.000155
0.000165
0.000144
0.000126
0.000110
0.000100
0.000100
0.000115
0.000131
0.000134
0.000108
0.000108
0.000123
0.000121
0.000113
0.000123
0.000134
0.000123
0.000147
0.000144
0.000118
0.000168
0.000191
0.000165
0.000165
0.000173
0.000105
0.000139
0.000142
0.000139
0.000113
0.000110
0.000134
0.000149
0.000147
0.000147
0.000139
0.000142
0.000139
0.000152
0.000121
0.000152
0.000129
0.000139
0.000165
0.000168
0.000173
0.000157
0.000155
0.000173
0.000157
0.000142
0.000139
0.000170
0.000152
0.000149
0.000134
0.000105
0.000118
0.000108
0.000079
0.000110
0.000110
0.000087
0.000123
0.000144
0.000121
0.000157
0.000149
0.000163
0.000157
0.000170
0.000149
0.000184
0.000155
0.000176
0.000176
0.000157
0.000176
0.000168
0.000118
0.000149
0.000160
0.000115
0.000129
0.000147
0.000139
0.000147
0.000160
0.000160
0.000184
0.000163
0.000129
0.000189
0.000163
0.000184
0.000163
0.000176
0.000165
0.000189
0.000152
0.000147
0.000168
0.000102
0.000092
0.000129
0.000108
0.000134
0.000144
0.000118
0.000131
0.000136
0.000165
0.000131
0.000118
0.000147
0.000139
0.000176
0.000173
0.000181
0.000152
0.000147
0.000149
0.000160
0.000157
0.000163
0.000144
0.000147
0.000142
0.000149
0.000115
0.000129
0.000118
0.000100
0.000108
0.000134
0.000149
0.000147
0.000170
0.000184
0.000170
0.000181
0.000186
0.000176
0.000189
0.000191
0.000173
0.000181
0.000147
0.000142
0.000136
0.000129
0.000105
0.000105
0.000094
0.000110
0.000094
0.000092
0.000126
0.000131
0.000126
0.000134
0.000152
0.000139
0.000136
0.000157
0.000134
0.000142
0.000121
0.000142
0.000170
0.000165
0.000105
0.000144
0.000134
0.000155
0.000160
0.000136
0.000149
0.000168
0.000129
0.000102
0.000118
0.000142
0.000092
0.000139
0.000134
0.000126
0.000134
0.000163
0.000173
0.000197
0.000168
0.000155
0.000160
0.000170
0.000155
0.000142
0.000155
0.000186
0.000123
0.000134
0.000142
0.000152
0.000136
0.000157
0.000152
0.000157
0.000136
0.000113
0.000129
0.000139
0.000115
0.000129
0.000123
0.000144
0.000121
0.000139
0.000134
0.000142
0.000134
0.000126
0.000136
0.000165
0.000131
0.000149
0.000121
0.000129
0.000163
0.000168
0.000168
0.000178
0.000147
0.000168
0.000142
0.000160
0.000144
0.000155
0.000134
0.000142
0.000121
0.000110
0.000147
0.000126
0.000105
0.000155
0.000126
0.000139
0.000155
0.000136
0.000121
0.000110
0.000126
0.000165
0.000134
0.000131
0.000155
0.000147
0.000139
0.000160
0.000157
0.000170
0.000165
0.000147
0.000123
0.000170
0.000168
0.000152
0.000149
0.000157
0.000136
0.000157
0.000165
0.000178
0.000142
0.000149
0.000157
0.000160
0.000152
0.000168
0.000160
0.000170
0.000144
0.000131
0.000092
0.000139
0.000123
0.000123
0.000123
0.000123
0.000121
0.000129
0.000131
0.000126
0.000123
0.000157
0.000160
0.000165
0.000139
0.000134
0.000129
0.000142
0.000094
0.000136
0.000100
0.000139
0.000144
0.000129
0.000139
0.000173
0.000126
0.000147
0.000134
0.000136
0.000147
0.000173
0.000155
0.000149
0.000134
0.000149
0.000142
0.000113
0.000134
0.000144
0.000110
0.000155
0.000126
0.000144
0.000155
0.000152
0.000118
0.000155
0.000176
0.000176
0.000189
0.000189
0.000152
0.000160
0.000108
0.000131
0.000144
0.000155
0.000134
0.000165
0.000149
0.000157
0.000144
0.000126
0.000123
0.000134
0.000108
0.000126
0.000129
0.000129
0.000126
0.000123
0.000126
0.000136
0.000118
0.000144
0.000165
0.000155
0.000170
0.000160
0.000144
0.000131
0.000105
0.000105
0.000089
0.000115
0.000115
0.000139
0.000181
0.000220
0.000207
0.000202
0.000184
0.000160
0.000113
0.000121
0.000105
0.000136
0.000139
0.000155
0.000157
0.000142
0.000142
0.000129
0.000168
0.000207
0.000207
0.000194
0.000194
0.000170
0.000139
0.000136
0.000131
0.000142
0.000129
0.000126
0.000163
0.000160
0.000113
0.000147
0.000129
0.000147
0.000139
0.000147
0.000131
0.000168
0.000152
0.000165
0.000168
0.000163
0.000194
0.000176
0.000176
0.000197
0.000142
0.000113
0.000129
0.000079
0.000045
0.000094
0.000063
0.000087
0.000068
0.000113
0.000063
0.000068
0.000076
0.000097
0.000157
0.000202
0.000241
0.000281
0.000299
0.000294
0.000265
0.000207
0.000163
0.000139
0.000073
0.000063
-0.000005
-0.000016
0.000005
0.000037
0.000042
0.000110
0.000110
0.000199
0.000218
0.000207
0.000218
0.000236
0.000181
0.000178
0.000131
0.000115
0.000147
0.000160
0.000129
0.000147
0.000139
0.000160
0.000160
0.000194
0.000212
0.000262
0.000249
0.000270
0.000244
0.000228
0.000218
0.000197
0.000139
0.000129
0.000102
0.000058
0.000029
-0.000000
-0.000058
-0.000110
-0.000281
-0.000504
-0.001031
-0.001918
-0.003243
-0.004996
-0.007202
-0.009782
-0.012754
-0.015730
-0.018075
-0.019794
-0.021153
-0.022184
-0.023079
-0.023688
-0.023971
-0.024037
-0.024003
-0.023879
-0.023793
-0.023738
-0.023622
-0.023446
-0.023176
-0.022722
-0.022166
-0.021597
-0.021019
-0.020460
-0.020122
-0.019679
-0.018949
-0.018225
-0.017711
-0.017417
-0.016947
-0.016328
-0.015727
-0.015019
-0.014360
-0.013922
-0.013552
-0.013185
-0.012812
-0.012382
-0.012049
-0.011668
-0.011280
-0.011062
-0.010844
-0.010506
-0.010159
-0.009782
-0.009632
-0.009682
-0.009768
-0.009834
-0.010102
-0.010396
-0.010700
-0.010968
-0.011170
-0.011296
-0.011393
-0.011275
-0.011070
-0.010844
-0.010619
-0.010466
-0.010361
-0.010259
-0.010120
-0.010005
-0.009852
-0.009708
-0.009551
-0.009406
-0.009215
-0.008903
-0.008577
-0.008344
-0.008163
-0.007992
-0.007801
-0.007622
-0.007462
-0.007239
-0.007103
-0.006901
-0.006641
-0.006381
-0.006155
-0.005927
-0.005812
-0.005786
-0.005707
-0.005581
-0.005437
-0.005261
-0.005116
-0.004925
-0.004817
-0.004752
-0.004712
-0.004699
-0.004757
-0.004757
-0.004820
-0.004815
-0.004749
-0.004830
-0.004893
-0.004878
-0.004865
-0.004830
-0.004726
-0.004605
-0.004621
-0.004579
-0.004584
-0.004550
-0.004500
-0.004369
-0.004282
-0.004237
-0.004185
-0.004138
-0.004154
-0.004159
-0.004072
-0.003991
-0.003970
-0.003915
-0.003815
-0.003768
-0.003755
-0.003726
-0.003668
-0.003626
-0.003595
-0.003484
-0.003332
-0.003212
-0.003073
-0.002968
-0.003002
-0.002962
-0.002926
-0.002813
-0.002752
-0.002739
-0.002721
-0.002655
-0.002574
-0.002524
-0.002385
-0.002236
-0.002285
-0.002385
-0.002516
-0.002632
-0.002671
-0.002653
-0.002548
-0.002522
-0.002545
-0.002564
-0.002603
-0.002676
-0.002731
-0.002813
-0.002933
-0.002933
-0.002860
-0.002776
-0.002671
-0.002561
-0.002529
-0.002490
-0.002409
-0.002314
-0.002173
-0.002057
-0.001968
-0.001984
-0.002096
-0.002141
-0.002162
-0.002123
-0.002075
-0.001929
-0.001855
-0.001808
-0.001763
-0.001732
-0.001690
-0.001632
-0.001629
-0.001629
-0.001703
-0.001805
-0.001805
-0.001737
-0.001682
-0.001566
-0.001501
-0.001406
-0.001357
-0.001349
-0.001299
-0.001307
-0.001380
-0.001441
-0.001493
-0.001527
-0.001559
-0.001608
-0.001645
-0.001637
-0.001643
-0.001671
-0.001622
-0.001595
-0.001577
-0.001514
-0.001483
-0.001425
-0.001427
-0.001349
-0.001265
-0.001225
-0.001228
-0.001225
-0.001309
-0.001351
-0.001378
-0.001385
-0.001409
-0.001409
-0.001391
-0.001412
-0.001364
-0.001336
-0.001294
-0.001233
-0.001191
-0.001126
-0.001068
-0.001031
-0.001039
-0.001063
-0.001126
-0.001155
-0.001170
-0.001197
-0.001139
-0.001071
-0.001034
-0.000960
-0.000963
-0.000932
-0.000942
-0.000950
-0.000942
-0.000992
-0.001047
-0.001055
-0.001097
-0.001094
-0.001134
-0.001126
-0.001152
-0.001097
-0.001063
-0.001002
-0.000968
-0.001018
-0.001081
-0.001084
-0.001089
-0.001147
-0.001102
-0.001055
-0.001107
-0.001118
-0.001131
-0.001110
-0.001050
-0.000992
-0.000939
-0.000871
-0.000884
-0.000840
-0.000811
-0.000756
-0.000680
-0.000611
-0.000593
-0.000588
-0.000609
-0.000667
-0.000716
-0.000758
-0.000850
-0.000905
-0.000971
-0.000997
-0.001071
-0.001113
-0.001107
-0.001071
-0.001065
-0.000966
-0.000853
-0.000798
-0.000722
-0.000659
-0.000687
-0.000651
-0.000680
-0.000643
-0.000625
-0.000659
-0.000640
-0.000625
-0.000669
-0.000661
-0.000648
-0.000661
-0.000667
-0.000643
-0.000711
-0.000766
-0.000827
-0.000832
-0.000848
-0.000795
-0.000816
-0.000777
-0.000706
-0.000648
-0.000606
-0.000527
-0.000520
-0.000538
-0.000554
-0.000520
-0.000538
-0.000551
-0.000572
-0.000590
-0.000693
-0.000716
-0.000771
-0.000840
-0.000827
-0.000785
-0.000777
-0.000769
-0.000685
-0.000588
-0.000554
-0.000514
-0.000470
-0.000462
-0.000459
-0.000459
-0.000436
-0.000491
-0.000491
-0.000470
-0.000520
-0.000488
-0.000559
-0.000653
-0.000695
-0.000695
-0.000703
-0.000706
-0.000625
-0.000562
-0.000504
-0.000436
-0.000415
-0.000407
-0.000446
-0.000470
-0.000488
-0.000499
-0.000512
-0.000485
-0.000478
-0.000422
-0.000396
-0.000396
-0.000433
-0.000459
-0.000496
-0.000559
-0.000614
-0.000627
-0.000643
-0.000627
-0.000693
-0.000653
-0.000646
-0.000577
-0.000554
-0.000509
-0.000438
-0.000386
-0.000399
-0.000312
-0.000331
-0.000370
-0.000399
-0.000404
-0.000459
-0.000475
-0.000551
-0.000617
-0.000640
-0.000604
-0.000614
-0.000598
-0.000619
-0.000606
-0.000585
-0.000596
-0.000517
-0.000491
-0.000475
-0.000425
-0.000381
-0.000391
-0.000391
-0.000370
-0.000378
-0.000383
-0.000391
-0.000436
-0.000467
-0.000512
-0.000501
-0.000475
-0.000493
-0.000478
-0.000499
-0.000527
-0.000525
-0.000478
-0.000480
-0.000422
-0.000457
-0.000449
-0.000464
-0.000412
-0.000391
-0.000394
-0.000412
-0.000436
-0.000517
-0.000577
-0.000572
-0.000520
-0.000575
-0.000577
-0.000530
-0.000556
-0.000554
-0.000485
-0.000428
-0.000378
-0.000383
-0.000354
-0.000325
-0.000307
-0.000297
-0.000249
-0.000247
-0.000223
-0.000270
-0.000291
-0.000278
-0.000318
-0.000325
-0.000328
-0.000373
-0.000407
-0.000443
-0.000428
-0.000459
-0.000428
-0.000378
-0.000394
-0.000472
-0.000415
-0.000391
-0.000373
-0.000339
-0.000310
-0.000331
-0.000344
-0.000362
-0.000370
-0.000388
-0.000391
-0.000404
-0.000391
-0.000391
-0.000388
-0.000425
-0.000449
-0.000483
-0.000491
-0.000522
-0.000436
-0.000420
-0.000409
-0.000381
-0.000352
-0.000373
-0.000362
-0.000339
-0.000357
-0.000367
-0.000315
-0.000312
-0.000304
-0.000310
-0.000318
-0.000344
-0.000373
-0.000365
-0.000399
-0.000420
-0.000404
-0.000422
-0.000409
-0.000370
-0.000341
-0.000328
-0.000294
-0.000283
-0.000268
-0.000262
-0.000247
-0.000270
-0.000312
-0.000362
-0.000310
-0.000304
-0.000312
-0.000283
-0.000270
-0.000312
-0.000328
-0.000352
-0.000375
-0.000360
-0.000336
-0.000344
-0.000323
-0.000299
-0.000268
-0.000289
-0.000302
-0.000257
-0.000226
-0.000236
-0.000215
-0.000215
-0.000184
-0.000239
-0.000234
-0.000273
-0.000268
-0.000297
-0.000357
-0.000394
-0.000381
-0.000415
-0.000415
-0.000420
-0.000396
-0.000370
-0.000289
-0.000220
-0.000176
-0.000160
-0.000110
-0.000097
-0.000092
-0.000089
-0.000116
-0.000134
-0.000110
-0.000178
-0.000202
-0.000234
-0.000236
-0.000341
-0.000412
-0.000422
-0.000399
-0.000436
-0.000415
-0.000446
-0.000446
-0.000417
-0.000402
-0.000365
-0.000294
-0.000304
-0.000226
-0.000213
-0.000213
-0.000163
-0.000147
-0.000134
-0.000102
-0.000116
-0.000108
-0.000155
-0.000192
-0.000270
-0.000278
-0.000341
-0.000315
-0.000352
-0.000365
-0.000375
-0.000375
-0.000360
-0.000370
-0.000381
-0.000383
-0.000370
-0.000357
-0.000325
-0.000299
-0.000291
-0.000239
-0.000197
-0.000247
-0.000231
-0.000197
-0.000228
-0.000210
-0.000223
-0.000220
-0.000297
-0.000297
-0.000336
-0.000333
-0.000336
-0.000252
-0.000207
-0.000197
-0.000178
-0.000157
-0.000207
-0.000197
-0.000202
-0.000226
-0.000223
-0.000223
-0.000257
-0.000231
-0.000231
-0.000294
-0.000328
-0.000331
-0.000310
-0.000278
-0.000336
-0.000241
-0.000234
-0.000220
-0.000147
-0.000121
-0.000163
-0.000147
-0.000160
-0.000165
-0.000205
-0.000215
-0.000223
-0.000220
-0.000207
-0.000205
-0.000189
-0.000168
-0.000178
-0.000157
-0.000226
-0.000223
-0.000210
-0.000273
-0.000283
-0.000289
-0.000346
-0.000357
-0.000365
-0.000323
-0.000231
-0.000178
-0.000160
-0.000063
-0.000058
-0.000053
-0.000074
-0.000105
-0.000118
-0.000134
-0.000165
-0.000155
-0.000186
-0.000176
-0.000213
-0.000202
-0.000213
-0.000199
-0.000176
-0.000168
-0.000144
-0.000097
-0.000163
-0.000178
-0.000205
-0.000226
-0.000199
-0.000197
-0.000186
-0.000160
-0.000123
-0.000121
-0.000134
-0.000152
-0.000165
-0.000178
-0.000252
-0.000231
-0.000213
-0.000194
-0.000171
-0.000123
-0.000131
-0.000102
-0.000157
-0.000150
-0.000150
-0.000157
-0.000136
-0.000089
-0.000063
-0.000045
-0.000053
-0.000060
-0.000081
-0.000108
-0.000165
-0.000165
-0.000184
-0.000213
-0.000231
-0.000218
-0.000239
-0.000241
-0.000213
-0.000144
-0.000095
-0.000050
-0.000053
-0.000029
-0.000032
-0.000005
0.000034
0.000039
0.000031
0.000050
-0.000026
-0.000081
-0.000118
-0.000223
-0.000249
-0.000249
-0.000283
-0.000252
-0.000265
-0.000218
-0.000202
-0.000184
-0.000207
-0.000155
-0.000197
-0.000118
-0.000100
-0.000121
-0.000113
-0.000071
-0.000100
-0.000079
-0.000060
-0.000058
-0.000058
-0.000066
-0.000144
-0.000134
-0.000168
-0.000176
-0.000194
-0.000207
-0.000202
-0.000197
-0.000215
-0.000218
-0.000215
-0.000215
-0.000176
-0.000105
-0.000081
-0.000029
-0.000011
-0.000047
-0.000050
-0.000011
-0.000055
-0.000042
-0.000055
-0.000066
-0.000074
-0.000089
-0.000126
-0.000097
-0.000152
-0.000147
-0.000150
-0.000157
-0.000171
-0.000163
-0.000181
-0.000126
-0.000150
-0.000147
-0.000123
-0.000074
-0.000105
-0.000047
-0.000055
-0.000076
-0.000110
-0.000136
-0.000131
-0.000121
-0.000176
-0.000150
-0.000110
-0.000113
-0.000105
-0.000053
-0.000105
-0.000134
-0.000150
-0.000150
-0.000152
-0.000142
-0.000155
-0.000116
-0.000092
-0.000113
-0.000071
-0.000079
-0.000063
-0.000063
-0.000089
-0.000060
-0.000092
-0.000079
-0.000100
-0.000068
-0.000058
-0.000100
-0.000121
-0.000165
-0.000150
-0.000168
-0.000192
-0.000131
-0.000144
-0.000147
-0.000205
-0.000207
-0.000199
-0.000160
-0.000165
-0.000087
-0.000060
-0.000055
-0.000089
-0.000123
-0.000152
-0.000168
-0.000160
-0.000171
-0.000160
-0.000139
-0.000136
-0.000129
-0.000116
-0.000102
-0.000100
-0.000084
-0.000110
-0.000047
-0.000063
-0.000066
-0.000058
-0.000055
-0.000084
-0.000060
-0.000123
-0.000139
-0.000144
-0.000142
-0.000129
-0.000100
-0.000121
-0.000118
-0.000144
-0.000129
-0.000105
-0.000136
-0.000136
-0.000081
-0.000105
-0.000089
-0.000068
-0.000076
-0.000050
-0.000058
-0.000050
-0.000074
-0.000063
-0.000042
-0.000102
-0.000102
-0.000126
-0.000142
-0.000136
-0.000118
-0.000123
-0.000100
-0.000095
-0.000076
-0.000095
-0.000060
-0.000000
0.000016
-0.000013
0.000039
-0.000000
0.000026
0.000037
0.000013
-0.000013
-0.000066
-0.000121
-0.000129
-0.000163
-0.000157
-0.000163
-0.000139
-0.000118
-0.000142
-0.000173
-0.000213
-0.000163
-0.000173
-0.000163
-0.000108
-0.000058
-0.000050
-0.000071
-0.000026
-0.000081
-0.000092
-0.000116
-0.000144
-0.000168
-0.000155
-0.000184
-0.000144
-0.000139
-0.000121
-0.000126
-0.000136
-0.000139
-0.000126
-0.000160
-0.000105
-0.000058
-0.000047
-0.000021
-0.000016
0.000008
0.000031
0.000008
-0.000005
0.000008
0.000008
-0.000013
-0.000003
-0.000000
0.000005
-0.000039
-0.000053
-0.000074
-0.000084
-0.000095
-0.000074
-0.000068
-0.000042
-0.000066
-0.000058
-0.000068
-0.000071
-0.000066
-0.000034
-0.000021
-0.000016
-0.000021
0.000013
-0.000000
0.000003
-0.000032
-0.000071
-0.000121
-0.000134
-0.000147
-0.000116
-0.000095
-0.000066
-0.000055
-0.000034
-0.000053
-0.000071
-0.000139
-0.000123
-0.000110
-0.000092
-0.000063
-0.000013
-0.000011
0.000008
0.000010
-0.000026
-0.000068
-0.000081
-0.000123
-0.000087
-0.000116
-0.000108
-0.000089
-0.000097
-0.000155
-0.000097
-0.000097
-0.000068
-0.000053
-0.000018
0.000010
0.000031
0.000024
0.000037
-0.000029
-0.000034
-0.000039
-0.000047
-0.000060
-0.000087
-0.000068
-0.000092
-0.000123
-0.000089
-0.000118
-0.000136
-0.000142
-0.000116
-0.000134
-0.000089
-0.000076
-0.000034
-0.000008
-0.000011
-0.000063
-0.000042
-0.000079
-0.000050
-0.000032
-0.000016
0.000010
0.000008
-0.000026
-0.000042
-0.000074
-0.000076
-0.000118
-0.000102
-0.000071
-0.000076
-0.000089
-0.000089
-0.000092
-0.000034
-0.000063
-0.000024
-0.000058
-0.000042
-0.000037
-0.000032
-0.000000
-0.000005
-0.000008
-0.000008
-0.000042
-0.000063
-0.000084
-0.000102
-0.000095
-0.000089
-0.000071
-0.000076
-0.000042
-0.000032
-0.000042
-0.000050
-0.000068
-0.000047
-0.000018
-0.000008
-0.000008
0.000016
0.000045
0.000034
0.000031
0.000026
0.000034
0.000010
0.000024
0.000013
-0.000011
0.000005
-0.000018
-0.000003
-0.000032
0.000010
0.000008
-0.000005
-0.000032
0.000008
-0.000018
-0.000026
0.000008
0.000010
-0.000016
-0.000000
0.000005
0.000005
0.000018
0.000047
0.000039
0.000018
-0.000021
-0.000018
-0.000029
-0.000039
-0.000039
-0.000024
-0.000063
-0.000039
-0.000039
-0.000045
-0.000068
-0.000071
-0.000076
-0.000060
-0.000076
-0.000047
-0.000050
-0.000042
-0.000026
0.000013
-0.000000
-0.000013
-0.000045
-0.000079
-0.000108
-0.000097
-0.000113
-0.000071
-0.000058
-0.000032
-0.000018
0.000005
